; The collision integrals Q_{i,j}^{11} are exponential fit function obtained from 
; Transport properties of high-temperature Jupiter atmosphere components, D. Bruno, C. Catalfamo, M. Capitelli, G. Colonna, O. De Pascale et al., Phys. Plasmas 17, 112315 (2010), doi: 10.1063/1.3495980, Published by the American Institute of Physics
; 
; 
; To obtain these collision integrals, the original data (transport cross section Q^l_{i,j} or elastic collision differential cross section) are obtained from:
; 
; Transport properties of Hydrogen, J. R. Stallcop, E. Levin, H. Partridge, Journal of Thermophysics and Heat Transfer, Vol.12, No 4, 1998
;
;
; 1 atomic unit of square distance = 2.80e-17 cm^2
; 1eV = 11604K

2.80e-17


;        E             T             Q11
;       (eV)         (K)         (a.u.)

0.0862174       1000       68.7486
0.0948391       1100       67.0846
0.103461       1200       65.5666
0.112083       1300       64.1713
0.120704       1400       62.8805
0.129326       1500       61.6795
0.137948       1600       60.5568
0.14657       1700       59.5027
0.155191       1800       58.5092
0.163813       1900       57.5697
0.172435       2000       56.6784
0.181056       2100       55.8306
0.189678       2200       55.022
0.1983       2300       54.249
0.206922       2400       53.5085
0.215543       2500       52.7978
0.224165       2600       52.1143
0.232787       2700       51.456
0.241409       2800       50.8209
0.25003       2900       50.2072
0.258652       3000       49.6136
0.267274       3100       49.0385
0.275896       3200       48.4807
0.284517       3300       47.9392
0.293139       3400       47.4129
0.301761       3500       46.9008
0.310383       3600       46.4021
0.319004       3700       45.916
0.327626       3800       45.4419
0.336248       3900       44.9791
0.34487       4000       44.527
0.353491       4100       44.085
0.362113       4200       43.6526
0.370735       4300       43.2294
0.379356       4400       42.8149
0.387978       4500       42.4088
0.3966       4600       42.0107
0.405222       4700       41.6201
0.413843       4800       41.2369
0.422465       4900       40.8607
0.431087       5000       40.4912
0.439709       5100       40.1281
0.44833       5200       39.7713
0.456952       5300       39.4206
0.465574       5400       39.0756
0.474196       5500       38.7362
0.482817       5600       38.4022
0.491439       5700       38.0735
0.500061       5800       37.7498
0.508683       5900       37.431
0.517304       6000       37.1171
0.525926       6100       36.8077
0.534548       6200       36.5029
0.543169       6300       36.2025
0.551791       6400       35.9063
0.560413       6500       35.6143
0.569035       6600       35.3264
0.577656       6700       35.0424
0.586278       6800       34.7623
0.5949       6900       34.486
0.603522       7000       34.2133
0.612143       7100       33.9443
0.620765       7200       33.6788
0.629387       7300       33.4168
0.638009       7400       33.1581
0.64663       7500       32.9028
0.655252       7600       32.6507
0.663874       7700       32.4018
0.672496       7800       32.1561
0.681117       7900       31.9134
0.689739       8000       31.6738
0.698361       8100       31.4371
0.706983       8200       31.2033
0.715604       8300       30.9724
0.724226       8400       30.7442
0.732848       8500       30.5189
0.741469       8600       30.2963
0.750091       8700       30.0763
0.758713       8800       29.859
0.767335       8900       29.6443
0.775956       9000       29.4321
0.784578       9100       29.2224
0.7932       9200       29.0152
0.801822       9300       28.8104
0.810443       9400       28.608
0.819065       9500       28.408
0.827687       9600       28.2103
0.836309       9700       28.0148
0.84493       9800       27.8217
0.853552       9900       27.6307
0.862174       10000       27.4419
0.870796       10100       27.2553
0.879417       10200       27.0709
0.888039       10300       26.8885
0.896661       10400       26.7081
0.905282       10500       26.5298
0.913904       10600       26.3536
0.922526       10700       26.1792
0.931148       10800       26.0069
0.939769       10900       25.8364
0.948391       11000       25.6679
0.957013       11100       25.5012
0.965635       11200       25.3364
0.974256       11300       25.1733
0.982878       11400       25.0121
0.9915       11500       24.8526
1.00012       11600       24.6949
1.00874       11700       24.5389
1.01737       11800       24.3846
1.02599       11900       24.2319
1.03461       12000       24.0809
1.04323       12100       23.9315
1.05185       12200       23.7837
1.06047       12300       23.6375
1.0691       12400       23.4929
1.07772       12500       23.3498
1.08634       12600       23.2082
1.09496       12700       23.0681
1.10358       12800       22.9295
1.1122       12900       22.7923
1.12083       13000       22.6565
1.12945       13100       22.5222
1.13807       13200       22.3893
1.14669       13300       22.2577
1.15531       13400       22.1275
1.16393       13500       21.9987
1.17256       13600       21.8711
1.18118       13700       21.7449
1.1898       13800       21.62
1.19842       13900       21.4963
1.20704       14000       21.3739
1.21567       14100       21.2527
1.22429       14200       21.1327
1.23291       14300       21.0139
1.24153       14400       20.8963
1.25015       14500       20.7799
1.25877       14600       20.6646
1.2674       14700       20.5505
1.27602       14800       20.4375
1.28464       14900       20.3256
1.29326       15000       20.2148
1.30188       15100       20.1051
1.3105       15200       19.9964
1.31913       15300       19.8888
1.32775       15400       19.7822
1.33637       15500       19.6767
1.34499       15600       19.5721
1.35361       15700       19.4686
1.36223       15800       19.366
1.37086       15900       19.2644
1.37948       16000       19.1638
1.3881       16100       19.0641
1.39672       16200       18.9653
1.40534       16300       18.8675
1.41397       16400       18.7706
1.42259       16500       18.6745
1.43121       16600       18.5794
1.43983       16700       18.4851
1.44845       16800       18.3917
1.45707       16900       18.2991
1.4657       17000       18.2074
1.47432       17100       18.1165
1.48294       17200       18.0264
1.49156       17300       17.9372
1.50018       17400       17.8487
1.5088       17500       17.761
1.51743       17600       17.6741
1.52605       17700       17.588
1.53467       17800       17.5026
1.54329       17900       17.418
1.55191       18000       17.3341
1.56053       18100       17.2509
1.56916       18200       17.1685
1.57778       18300       17.0867
1.5864       18400       17.0057
1.59502       18500       16.9254
1.60364       18600       16.8457
1.61227       18700       16.7668
1.62089       18800       16.6885
1.62951       18900       16.6108
1.63813       19000       16.5338
1.64675       19100       16.4575
1.65537       19200       16.3818
1.664       19300       16.3067
1.67262       19400       16.2322
1.68124       19500       16.1584
1.68986       19600       16.0852
1.69848       19700       16.0125
1.7071       19800       15.9405
1.71573       19900       15.869
1.72435       20000       15.7981
1.73297       20100       15.7278
1.74159       20200       15.6581
1.75021       20300       15.5889
1.75883       20400       15.5202
1.76746       20500       15.4521
1.77608       20600       15.3846
1.7847       20700       15.3175
1.79332       20800       15.251
1.80194       20900       15.1851
1.81056       21000       15.1196
1.81919       21100       15.0546
1.82781       21200       14.9902
1.83643       21300       14.9262
1.84505       21400       14.8627
1.85367       21500       14.7997
1.8623       21600       14.7372
1.87092       21700       14.6752
1.87954       21800       14.6136
1.88816       21900       14.5525
1.89678       22000       14.4918
1.9054       22100       14.4316
1.91403       22200       14.3719
1.92265       22300       14.3125
1.93127       22400       14.2537
1.93989       22500       14.1952
1.94851       22600       14.1372
1.95713       22700       14.0796
1.96576       22800       14.0224
1.97438       22900       13.9657
1.983       23000       13.9093
1.99162       23100       13.8533
2.00024       23200       13.7978
2.00886       23300       13.7426
2.01749       23400       13.6879
2.02611       23500       13.6335
2.03473       23600       13.5795
2.04335       23700       13.5259
2.05197       23800       13.4726
2.0606       23900       13.4198
2.06922       24000       13.3673
2.07784       24100       13.3151
2.08646       24200       13.2633
2.09508       24300       13.2119
2.1037       24400       13.1608
2.11233       24500       13.1101
2.12095       24600       13.0597
2.12957       24700       13.0097
2.13819       24800       12.96
2.14681       24900       12.9106
2.15543       25000       12.8616
2.16406       25100       12.8128
2.17268       25200       12.7644
2.1813       25300       12.7164
2.18992       25400       12.6686
2.19854       25500       12.6212
2.20716       25600       12.574
2.21579       25700       12.5272
2.22441       25800       12.4807
2.23303       25900       12.4345
2.24165       26000       12.3886
2.25027       26100       12.3429
2.2589       26200       12.2976
2.26752       26300       12.2525
2.27614       26400       12.2078
2.28476       26500       12.1633
2.29338       26600       12.1191
2.302       26700       12.0752
2.31063       26800       12.0316
2.31925       26900       11.9882
2.32787       27000       11.9451
2.33649       27100       11.9022
2.34511       27200       11.8597
2.35373       27300       11.8174
2.36236       27400       11.7753
2.37098       27500       11.7335
2.3796       27600       11.692
2.38822       27700       11.6507
2.39684       27800       11.6097
2.40546       27900       11.5689
2.41409       28000       11.5284
2.42271       28100       11.4881
2.43133       28200       11.448
2.43995       28300       11.4082
2.44857       28400       11.3686
2.4572       28500       11.3293
2.46582       28600       11.2901
2.47444       28700       11.2513
2.48306       28800       11.2126
2.49168       28900       11.1742
2.5003       29000       11.136
2.50893       29100       11.098
2.51755       29200       11.0602
2.52617       29300       11.0227
2.53479       29400       10.9853
2.54341       29500       10.9482
2.55203       29600       10.9113
2.56066       29700       10.8746
2.56928       29800       10.8381
2.5779       29900       10.8018
2.58652       30000       10.7657
2.59514       30100       10.7298
2.60376       30200       10.6942
2.61239       30300       10.6587
2.62101       30400       10.6234
2.62963       30500       10.5883
2.63825       30600       10.5534
2.64687       30700       10.5187
2.6555       30800       10.4842
2.66412       30900       10.4499
2.67274       31000       10.4157
2.68136       31100       10.3818
2.68998       31200       10.348
2.6986       31300       10.3144
2.70723       31400       10.281
2.71585       31500       10.2478
2.72447       31600       10.2147
2.73309       31700       10.1818
2.74171       31800       10.1491
2.75033       31900       10.1166
2.75896       32000       10.0843
2.76758       32100       10.0521
2.7762       32200       10.0201
2.78482       32300       9.98821
2.79344       32400       9.95653
2.80206       32500       9.92501
2.81069       32600       9.89365
2.81931       32700       9.86246
2.82793       32800       9.83143
2.83655       32900       9.80056
2.84517       33000       9.76984
2.8538       33100       9.73929
2.86242       33200       9.70888
2.87104       33300       9.67864
2.87966       33400       9.64854
2.88828       33500       9.6186
2.8969       33600       9.58881
2.90553       33700       9.55916
2.91415       33800       9.52967
2.92277       33900       9.50032
2.93139       34000       9.47112
2.94001       34100       9.44206
2.94863       34200       9.41315
2.95726       34300       9.38437
2.96588       34400       9.35574
2.9745       34500       9.32726
2.98312       34600       9.2989
2.99174       34700       9.27069
3.00036       34800       9.24262
3.00899       34900       9.21468
3.01761       35000       9.18687
3.02623       35100       9.1592
3.03485       35200       9.13166
3.04347       35300       9.10426
3.0521       35400       9.07698
3.06072       35500       9.04984
3.06934       35600       9.02282
3.07796       35700       8.99593
3.08658       35800       8.96917
3.0952       35900       8.94253
3.10383       36000       8.91602
3.11245       36100       8.88963
3.12107       36200       8.86337
3.12969       36300       8.83723
3.13831       36400       8.81121
3.14693       36500       8.78531
3.15556       36600       8.75953
3.16418       36700       8.73387
3.1728       36800       8.70832
3.18142       36900       8.6829
3.19004       37000       8.65759
3.19866       37100       8.63239
3.20729       37200       8.60731
3.21591       37300       8.58234
3.22453       37400       8.55749
3.23315       37500       8.53275
3.24177       37600       8.50812
3.2504       37700       8.48359
3.25902       37800       8.45918
3.26764       37900       8.43488
3.27626       38000       8.41069
3.28488       38100       8.3866
3.2935       38200       8.36262
3.30213       38300       8.33874
3.31075       38400       8.31497
3.31937       38500       8.29131
3.32799       38600       8.26775
3.33661       38700       8.24429
3.34523       38800       8.22093
3.35386       38900       8.19767
3.36248       39000       8.17452
3.3711       39100       8.15146
3.37972       39200       8.12851
3.38834       39300       8.10565
3.39696       39400       8.08289
3.40559       39500       8.06023
3.41421       39600       8.03767
3.42283       39700       8.0152
3.43145       39800       7.99282
3.44007       39900       7.97055
3.4487       40000       7.94836
3.45732       40100       7.92627
3.46594       40200       7.90427
3.47456       40300       7.88236
3.48318       40400       7.86055
3.4918       40500       7.83883
3.50043       40600       7.81719
3.50905       40700       7.79565
3.51767       40800       7.77419
3.52629       40900       7.75283
3.53491       41000       7.73155
3.54353       41100       7.71036
3.55216       41200       7.68926
3.56078       41300       7.66824
3.5694       41400       7.64731
3.57802       41500       7.62646
3.58664       41600       7.6057
3.59526       41700       7.58502
3.60389       41800       7.56443
3.61251       41900       7.54391
3.62113       42000       7.52349
3.62975       42100       7.50314
3.63837       42200       7.48287
3.647       42300       7.46269
3.65562       42400       7.44258
3.66424       42500       7.42256
3.67286       42600       7.40261
3.68148       42700       7.38275
3.6901       42800       7.36296
3.69873       42900       7.34325
3.70735       43000       7.32362
3.71597       43100       7.30406
3.72459       43200       7.28458
3.73321       43300       7.26518
3.74183       43400       7.24585
3.75046       43500       7.2266
3.75908       43600       7.20742
3.7677       43700       7.18832
3.77632       43800       7.16929
3.78494       43900       7.15033
3.79356       44000       7.13144
3.80219       44100       7.11263
3.81081       44200       7.09389
3.81943       44300       7.07522
3.82805       44400       7.05662
3.83667       44500       7.0381
3.8453       44600       7.01964
3.85392       44700       7.00125
3.86254       44800       6.98293
3.87116       44900       6.96468
3.87978       45000       6.9465
3.8884       45100       6.92839
3.89703       45200       6.91034
3.90565       45300       6.89237
3.91427       45400       6.87445
3.92289       45500       6.85661
3.93151       45600       6.83883
3.94013       45700       6.82112
3.94876       45800       6.80347
3.95738       45900       6.78589
3.966       46000       6.76837
3.97462       46100       6.75091
3.98324       46200       6.73352
3.99186       46300       6.7162
4.00049       46400       6.69893
4.00911       46500       6.68173
4.01773       46600       6.66459
4.02635       46700       6.64752
4.03497       46800       6.6305
4.0436       46900       6.61355
4.05222       47000       6.59665
4.06084       47100       6.57982
4.06946       47200       6.56305
4.07808       47300       6.54633
4.0867       47400       6.52968
4.09533       47500       6.51309
4.10395       47600       6.49655
4.11257       47700       6.48007
4.12119       47800       6.46366
4.12981       47900       6.4473
4.13843       48000       6.43099
4.14706       48100       6.41475
4.15568       48200       6.39856
4.1643       48300       6.38243
4.17292       48400       6.36635
4.18154       48500       6.35033
4.19016       48600       6.33436
4.19879       48700       6.31846
4.20741       48800       6.3026
4.21603       48900       6.2868
4.22465       49000       6.27106
4.23327       49100       6.25537
4.2419       49200       6.23973
4.25052       49300       6.22415
4.25914       49400       6.20862
4.26776       49500       6.19314
4.27638       49600       6.17771
4.285       49700       6.16234
4.29363       49800       6.14702
4.30225       49900       6.13175
4.31087       50000       6.11654
4.31949       50100       6.10137
4.32811       50200       6.08626
4.33673       50300       6.07119
4.34536       50400       6.05618
4.35398       50500       6.04122
4.3626       50600       6.0263
4.37122       50700       6.01144
4.37984       50800       5.99663
4.38846       50900       5.98186
4.39709       51000       5.96715
4.40571       51100       5.95248
4.41433       51200       5.93786
4.42295       51300       5.92329
4.43157       51400       5.90877
4.4402       51500       5.89429
4.44882       51600       5.87986
4.45744       51700       5.86548
4.46606       51800       5.85115
4.47468       51900       5.83686
4.4833       52000       5.82262
4.49193       52100       5.80843
4.50055       52200       5.79428
4.50917       52300       5.78018
4.51779       52400       5.76612
4.52641       52500       5.75211
4.53503       52600       5.73814
4.54366       52700       5.72422
4.55228       52800       5.71034
4.5609       52900       5.69651
4.56952       53000       5.68272
4.57814       53100       5.66897
4.58676       53200       5.65527
4.59539       53300       5.64161
4.60401       53400       5.62799
4.61263       53500       5.61442
4.62125       53600       5.60089
4.62987       53700       5.58741
4.6385       53800       5.57396
4.64712       53900       5.56056
4.65574       54000       5.5472
4.66436       54100       5.53388
4.67298       54200       5.5206
4.6816       54300       5.50737
4.69023       54400       5.49417
4.69885       54500       5.48102
4.70747       54600       5.4679
4.71609       54700       5.45483
4.72471       54800       5.4418
4.73333       54900       5.42881
4.74196       55000       5.41586
4.75058       55100       5.40294
4.7592       55200       5.39007
4.76782       55300       5.37724
4.77644       55400       5.36444
4.78506       55500       5.35169
4.79369       55600       5.33897
4.80231       55700       5.32629
4.81093       55800       5.31365
4.81955       55900       5.30105
4.82817       56000       5.28849
4.8368       56100       5.27596
4.84542       56200       5.26347
4.85404       56300       5.25102
4.86266       56400       5.23861
4.87128       56500       5.22623
4.8799       56600       5.2139
4.88853       56700       5.20159
4.89715       56800       5.18933
4.90577       56900       5.1771
4.91439       57000       5.16491
4.92301       57100       5.15275
4.93163       57200       5.14063
4.94026       57300       5.12854
4.94888       57400       5.1165
4.9575       57500       5.10448
4.96612       57600       5.0925
