; The collision integrals Q_{i,j}^{11} are exponential fit function obtained from 
; Transport properties of high-temperature Jupiter atmosphere components, D. Bruno, C. Catalfamo, M. Capitelli, G. Colonna, O. De Pascale et al., Phys. Plasmas 17, 112315 (2010), doi: 10.1063/1.3495980, Published by the American Institute of Physics
; 
; 
; To obtain these collision integrals, the original data (transport cross section Q^l_{i,j} or elastic collision differential cross section) are obtained from:
;
; 1) J. Aubreton, M. F. Elchinger, P. Fauchais, V. Rat, and P. Andr√©, J. Phys. D3 7, 2232 2004.
;
; 1 atomic unit of square distance = 2.80e-17 cm^2
; 1eV = 11604K

2.80e-17


;        E             T             Q11
;       (eV)         (K)         (a.u.)

0.0862174       1000       72.9784
0.0948391       1100       70.9699
0.103461       1200       69.1296
0.112083       1300       67.4281
0.120704       1400       65.8426
0.129326       1500       64.3553
0.137948       1600       62.952
0.14657       1700       61.6214
0.155191       1800       60.3542
0.163813       1900       59.1427
0.172435       2000       57.9808
0.181056       2100       56.8633
0.189678       2200       55.7856
0.1983       2300       54.7442
0.206922       2400       53.7358
0.215543       2500       52.7579
0.224165       2600       51.8082
0.232787       2700       50.8847
0.241409       2800       49.9857
0.25003       2900       49.1097
0.258652       3000       48.2556
0.267274       3100       47.422
0.275896       3200       46.6082
0.284517       3300       45.8132
0.293139       3400       45.0362
0.301761       3500       44.2765
0.310383       3600       43.5336
0.319004       3700       42.8068
0.327626       3800       42.0957
0.336248       3900       41.3998
0.34487       4000       40.7186
0.353491       4100       40.0518
0.362113       4200       39.399
0.370735       4300       38.7599
0.379356       4400       38.1341
0.387978       4500       37.5213
0.3966       4600       36.9212
0.405222       4700       36.3336
0.413843       4800       35.7581
0.422465       4900       35.1945
0.431087       5000       34.6426
0.439709       5100       34.1022
0.44833       5200       33.5728
0.456952       5300       33.0545
0.465574       5400       32.5468
0.474196       5500       32.0496
0.482817       5600       31.5628
0.491439       5700       31.0859
0.500061       5800       30.619
0.508683       5900       30.1616
0.517304       6000       29.7137
0.525926       6100       29.2751
0.534548       6200       28.8455
0.543169       6300       28.4248
0.551791       6400       28.0127
0.560413       6500       27.6091
0.569035       6600       27.2139
0.577656       6700       26.8267
0.586278       6800       26.4475
0.5949       6900       26.0761
0.603522       7000       25.7122
0.612143       7100       25.3558
0.620765       7200       25.0067
0.629387       7300       24.6647
0.638009       7400       24.3296
0.64663       7500       24.0013
0.655252       7600       23.6797
0.663874       7700       23.3645
0.672496       7800       23.0557
0.681117       7900       22.7531
0.689739       8000       22.4566
0.698361       8100       22.166
0.706983       8200       21.8812
0.715604       8300       21.602
0.724226       8400       21.3284
0.732848       8500       21.0601
0.741469       8600       20.7972
0.750091       8700       20.5394
0.758713       8800       20.2866
0.767335       8900       20.0388
0.775956       9000       19.7957
0.784578       9100       19.5574
0.7932       9200       19.3237
0.801822       9300       19.0944
0.810443       9400       18.8696
0.819065       9500       18.649
0.827687       9600       18.4326
0.836309       9700       18.2203
0.84493       9800       18.012
0.853552       9900       17.8076
0.862174       10000       17.607
0.870796       10100       17.4101
0.879417       10200       17.2169
0.888039       10300       17.0272
0.896661       10400       16.841
0.905282       10500       16.6583
0.913904       10600       16.4788
0.922526       10700       16.3026
0.931148       10800       16.1296
0.939769       10900       15.9597
0.948391       11000       15.7928
0.957013       11100       15.6289
0.965635       11200       15.4678
0.974256       11300       15.3097
0.982878       11400       15.1543
0.9915       11500       15.0016
1.00012       11600       14.8515
1.00874       11700       14.7041
1.01737       11800       14.5592
1.02599       11900       14.4167
1.03461       12000       14.2767
1.04323       12100       14.1391
1.05185       12200       14.0038
1.06047       12300       13.8708
1.0691       12400       13.74
1.07772       12500       13.6113
1.08634       12600       13.4848
1.09496       12700       13.3604
1.10358       12800       13.238
1.1122       12900       13.1176
1.12083       13000       12.9992
1.12945       13100       12.8827
1.13807       13200       12.768
1.14669       13300       12.6552
1.15531       13400       12.5442
1.16393       13500       12.4349
1.17256       13600       12.3274
1.18118       13700       12.2215
1.1898       13800       12.1173
1.19842       13900       12.0147
1.20704       14000       11.9137
1.21567       14100       11.8143
1.22429       14200       11.7164
1.23291       14300       11.6199
1.24153       14400       11.5249
1.25015       14500       11.4314
1.25877       14600       11.3392
1.2674       14700       11.2485
1.27602       14800       11.159
1.28464       14900       11.0709
1.29326       15000       10.9841
1.30188       15100       10.8986
1.3105       15200       10.8143
1.31913       15300       10.7312
1.32775       15400       10.6493
1.33637       15500       10.5686
1.34499       15600       10.489
1.35361       15700       10.4106
1.36223       15800       10.3333
1.37086       15900       10.257
1.37948       16000       10.1819
1.3881       16100       10.1077
1.39672       16200       10.0346
1.40534       16300       9.96254
1.41397       16400       9.89144
1.42259       16500       9.8213
1.43121       16600       9.75212
1.43983       16700       9.68387
1.44845       16800       9.61653
1.45707       16900       9.5501
1.4657       17000       9.48456
1.47432       17100       9.41988
1.48294       17200       9.35605
1.49156       17300       9.29306
1.50018       17400       9.23089
1.5088       17500       9.16953
1.51743       17600       9.10896
1.52605       17700       9.04917
1.53467       17800       8.99015
1.54329       17900       8.93188
1.55191       18000       8.87435
1.56053       18100       8.81754
1.56916       18200       8.76145
1.57778       18300       8.70606
1.5864       18400       8.65136
1.59502       18500       8.59733
1.60364       18600       8.54398
1.61227       18700       8.49127
1.62089       18800       8.43921
1.62951       18900       8.38778
1.63813       19000       8.33698
1.64675       19100       8.28678
1.65537       19200       8.23719
1.664       19300       8.18819
1.67262       19400       8.13977
1.68124       19500       8.09192
1.68986       19600       8.04463
1.69848       19700       7.9979
1.7071       19800       7.95171
1.71573       19900       7.90606
1.72435       20000       7.86093
1.73297       20100       7.81633
1.74159       20200       7.77223
1.75021       20300       7.72864
1.75883       20400       7.68554
1.76746       20500       7.64293
1.77608       20600       7.60079
1.7847       20700       7.55913
1.79332       20800       7.51793
1.80194       20900       7.47718
1.81056       21000       7.43689
1.81919       21100       7.39704
1.82781       21200       7.35762
1.83643       21300       7.31864
1.84505       21400       7.28007
1.85367       21500       7.24193
1.8623       21600       7.20419
1.87092       21700       7.16685
1.87954       21800       7.12992
1.88816       21900       7.09337
1.89678       22000       7.05721
1.9054       22100       7.02143
1.91403       22200       6.98603
1.92265       22300       6.95099
1.93127       22400       6.91632
1.93989       22500       6.882
1.94851       22600       6.84804
1.95713       22700       6.81443
1.96576       22800       6.78115
1.97438       22900       6.74822
1.983       23000       6.71562
1.99162       23100       6.68335
2.00024       23200       6.6514
2.00886       23300       6.61977
2.01749       23400       6.58845
2.02611       23500       6.55744
2.03473       23600       6.52674
2.04335       23700       6.49634
2.05197       23800       6.46624
2.0606       23900       6.43643
2.06922       24000       6.40691
2.07784       24100       6.37767
2.08646       24200       6.34872
2.09508       24300       6.32004
2.1037       24400       6.29163
2.11233       24500       6.2635
2.12095       24600       6.23563
2.12957       24700       6.20802
2.13819       24800       6.18067
2.14681       24900       6.15358
2.15543       25000       6.12674
2.16406       25100       6.10015
2.17268       25200       6.0738
2.1813       25300       6.0477
2.18992       25400       6.02183
2.19854       25500       5.9962
2.20716       25600       5.9708
2.21579       25700       5.94563
2.22441       25800       5.92069
2.23303       25900       5.89598
2.24165       26000       5.87148
2.25027       26100       5.8472
2.2589       26200       5.82314
2.26752       26300       5.79928
2.27614       26400       5.77564
2.28476       26500       5.75221
2.29338       26600       5.72898
2.302       26700       5.70595
2.31063       26800       5.68312
2.31925       26900       5.66049
2.32787       27000       5.63805
2.33649       27100       5.61581
2.34511       27200       5.59375
2.35373       27300       5.57188
2.36236       27400       5.5502
2.37098       27500       5.5287
2.3796       27600       5.50738
2.38822       27700       5.48624
2.39684       27800       5.46527
2.40546       27900       5.44448
2.41409       28000       5.42386
2.42271       28100       5.40341
2.43133       28200       5.38313
2.43995       28300       5.36301
2.44857       28400       5.34306
2.4572       28500       5.32327
2.46582       28600       5.30364
2.47444       28700       5.28416
2.48306       28800       5.26485
2.49168       28900       5.24569
2.5003       29000       5.22668
2.50893       29100       5.20782
2.51755       29200       5.18911
2.52617       29300       5.17055
2.53479       29400       5.15213
2.54341       29500       5.13386
2.55203       29600       5.11573
2.56066       29700       5.09774
2.56928       29800       5.07989
2.5779       29900       5.06218
2.58652       30000       5.04461
2.59514       30100       5.02717
2.60376       30200       5.00986
2.61239       30300       4.99268
2.62101       30400       4.97564
2.62963       30500       4.95872
2.63825       30600       4.94193
2.64687       30700       4.92526
2.6555       30800       4.90872
2.66412       30900       4.89231
2.67274       31000       4.87601
2.68136       31100       4.85984
2.68998       31200       4.84378
2.6986       31300       4.82784
2.70723       31400       4.81202
2.71585       31500       4.79632
2.72447       31600       4.78072
2.73309       31700       4.76524
2.74171       31800       4.74988
2.75033       31900       4.73462
2.75896       32000       4.71947
2.76758       32100       4.70443
2.7762       32200       4.6895
2.78482       32300       4.67467
2.79344       32400       4.65995
2.80206       32500       4.64533
2.81069       32600       4.63082
2.81931       32700       4.61641
2.82793       32800       4.60209
2.83655       32900       4.58788
2.84517       33000       4.57376
2.8538       33100       4.55975
2.86242       33200       4.54582
2.87104       33300       4.532
2.87966       33400       4.51827
2.88828       33500       4.50463
2.8969       33600       4.49108
2.90553       33700       4.47763
2.91415       33800       4.46427
2.92277       33900       4.45099
2.93139       34000       4.43781
2.94001       34100       4.42471
2.94863       34200       4.4117
2.95726       34300       4.39878
2.96588       34400       4.38594
2.9745       34500       4.37319
2.98312       34600       4.36052
2.99174       34700       4.34794
3.00036       34800       4.33543
3.00899       34900       4.32301
3.01761       35000       4.31067
3.02623       35100       4.29841
3.03485       35200       4.28623
3.04347       35300       4.27412
3.0521       35400       4.2621
3.06072       35500       4.25015
3.06934       35600       4.23827
3.07796       35700       4.22648
3.08658       35800       4.21475
3.0952       35900       4.2031
3.10383       36000       4.19153
3.11245       36100       4.18002
3.12107       36200       4.16859
3.12969       36300       4.15723
3.13831       36400       4.14594
3.14693       36500       4.13472
3.15556       36600       4.12357
3.16418       36700       4.11249
3.1728       36800       4.10147
3.18142       36900       4.09053
3.19004       37000       4.07965
3.19866       37100       4.06883
3.20729       37200       4.05809
3.21591       37300       4.0474
3.22453       37400       4.03678
3.23315       37500       4.02623
3.24177       37600       4.01574
3.2504       37700       4.00531
3.25902       37800       3.99494
3.26764       37900       3.98463
3.27626       38000       3.97439
3.28488       38100       3.96421
3.2935       38200       3.95408
3.30213       38300       3.94402
3.31075       38400       3.93401
3.31937       38500       3.92406
3.32799       38600       3.91417
3.33661       38700       3.90434
3.34523       38800       3.89456
3.35386       38900       3.88485
3.36248       39000       3.87518
3.3711       39100       3.86557
3.37972       39200       3.85602
3.38834       39300       3.84652
3.39696       39400       3.83708
3.40559       39500       3.82769
3.41421       39600       3.81835
3.42283       39700       3.80906
3.43145       39800       3.79983
3.44007       39900       3.79065
3.4487       40000       3.78152
3.45732       40100       3.77244
3.46594       40200       3.76341
3.47456       40300       3.75443
3.48318       40400       3.7455
3.4918       40500       3.73662
3.50043       40600       3.72779
3.50905       40700       3.71901
3.51767       40800       3.71027
3.52629       40900       3.70158
3.53491       41000       3.69294
3.54353       41100       3.68435
3.55216       41200       3.6758
3.56078       41300       3.6673
3.5694       41400       3.65884
3.57802       41500       3.65043
3.58664       41600       3.64207
3.59526       41700       3.63375
3.60389       41800       3.62547
3.61251       41900       3.61724
3.62113       42000       3.60905
3.62975       42100       3.6009
3.63837       42200       3.5928
3.647       42300       3.58474
3.65562       42400       3.57672
3.66424       42500       3.56874
3.67286       42600       3.56081
3.68148       42700       3.55291
3.6901       42800       3.54506
3.69873       42900       3.53725
3.70735       43000       3.52947
3.71597       43100       3.52174
3.72459       43200       3.51405
3.73321       43300       3.50639
3.74183       43400       3.49878
3.75046       43500       3.4912
3.75908       43600       3.48366
3.7677       43700       3.47616
3.77632       43800       3.4687
3.78494       43900       3.46127
3.79356       44000       3.45389
3.80219       44100       3.44654
3.81081       44200       3.43922
3.81943       44300       3.43194
3.82805       44400       3.4247
3.83667       44500       3.4175
3.8453       44600       3.41032
3.85392       44700       3.40319
3.86254       44800       3.39609
3.87116       44900       3.38902
3.87978       45000       3.38199
3.8884       45100       3.375
3.89703       45200       3.36803
3.90565       45300       3.3611
3.91427       45400       3.35421
3.92289       45500       3.34735
3.93151       45600       3.34052
3.94013       45700       3.33372
3.94876       45800       3.32696
3.95738       45900       3.32022
3.966       46000       3.31352
3.97462       46100       3.30686
3.98324       46200       3.30022
3.99186       46300       3.29361
4.00049       46400       3.28704
4.00911       46500       3.2805
4.01773       46600       3.27399
4.02635       46700       3.2675
4.03497       46800       3.26105
4.0436       46900       3.25463
4.05222       47000       3.24824
4.06084       47100       3.24188
4.06946       47200       3.23554
4.07808       47300       3.22924
4.0867       47400       3.22296
4.09533       47500       3.21672
4.10395       47600       3.2105
4.11257       47700       3.20431
4.12119       47800       3.19815
4.12981       47900       3.19202
4.13843       48000       3.18591
4.14706       48100       3.17984
4.15568       48200       3.17379
4.1643       48300       3.16776
4.17292       48400       3.16177
4.18154       48500       3.1558
4.19016       48600       3.14986
4.19879       48700       3.14394
4.20741       48800       3.13805
4.21603       48900       3.13219
4.22465       49000       3.12635
4.23327       49100       3.12054
4.2419       49200       3.11475
4.25052       49300       3.10899
4.25914       49400       3.10326
4.26776       49500       3.09755
4.27638       49600       3.09186
4.285       49700       3.0862
4.29363       49800       3.08056
4.30225       49900       3.07495
4.31087       50000       3.06936
4.31949       50100       3.0638
4.32811       50200       3.05826
4.33673       50300       3.05275
4.34536       50400       3.04725
4.35398       50500       3.04179
4.3626       50600       3.03634
4.37122       50700       3.03092
4.37984       50800       3.02552
4.38846       50900       3.02014
4.39709       51000       3.01479
4.40571       51100       3.00946
4.41433       51200       3.00415
4.42295       51300       2.99886
4.43157       51400       2.9936
4.4402       51500       2.98836
4.44882       51600       2.98314
4.45744       51700       2.97794
4.46606       51800       2.97276
4.47468       51900       2.96761
4.4833       52000       2.96247
4.49193       52100       2.95736
4.50055       52200       2.95227
4.50917       52300       2.94719
4.51779       52400       2.94214
4.52641       52500       2.93711
4.53503       52600       2.9321
4.54366       52700       2.92712
4.55228       52800       2.92215
4.5609       52900       2.9172
4.56952       53000       2.91227
4.57814       53100       2.90736
4.58676       53200       2.90247
4.59539       53300       2.8976
4.60401       53400       2.89275
4.61263       53500       2.88792
4.62125       53600       2.88311
4.62987       53700       2.87832
4.6385       53800       2.87354
4.64712       53900       2.86879
4.65574       54000       2.86405
4.66436       54100       2.85934
4.67298       54200       2.85464
4.6816       54300       2.84996
4.69023       54400       2.8453
4.69885       54500       2.84065
4.70747       54600       2.83603
4.71609       54700       2.83142
4.72471       54800       2.82683
4.73333       54900       2.82226
4.74196       55000       2.81771
4.75058       55100       2.81317
4.7592       55200       2.80865
4.76782       55300       2.80415
4.77644       55400       2.79967
4.78506       55500       2.7952
4.79369       55600       2.79075
4.80231       55700       2.78632
4.81093       55800       2.7819
4.81955       55900       2.7775
4.82817       56000       2.77312
4.8368       56100       2.76875
4.84542       56200       2.7644
4.85404       56300       2.76007
4.86266       56400       2.75575
4.87128       56500       2.75145
4.8799       56600       2.74717
4.88853       56700       2.7429
4.89715       56800       2.73865
4.90577       56900       2.73441
4.91439       57000       2.73019
4.92301       57100       2.72598
4.93163       57200       2.72179
4.94026       57300       2.71762
4.94888       57400       2.71346
4.9575       57500       2.70932
4.96612       57600       2.70519
4.97474       57700       2.70107
4.98336       57800       2.69698
