; The collision integrals Q_{i,j}^{11} are exponential fit function obtained from 
; Transport properties of high-temperature Jupiter atmosphere components, D. Bruno, C. Catalfamo, M. Capitelli, G. Colonna, O. De Pascale et al., Phys. Plasmas 17, 112315 (2010), doi: 10.1063/1.3495980, Published by the American Institute of Physics
; 
; 
; To obtain these collision integrals, the original data (transport cross section Q^l_{i,j} or elastic collision differential cross section) are obtained from:
; 1) Atomic and Plasma-material Interaction data for fusion, vol 8, international atomic energy agency, 1998,
; 
; 2) Predrag S Krstic and David R Schultz 1999 J. Phys. B: At. Mol. Opt. Phys. 32 , 3485
; 
; 1 atomic unit of square distance = 2.80e-17 cm^2
; 1eV = 11604K

2.80e-17


;        E             T             Q11
;       (eV)         (K)         (a.u.)

0.0862174       1000       419.68
0.0948391       1100       414.027
0.103461       1200       408.916
0.112083       1300       404.249
0.120704       1400       399.952
0.129326       1500       395.971
0.137948       1600       392.26
0.14657       1700       388.784
0.155191       1800       385.515
0.163813       1900       382.43
0.172435       2000       379.509
0.181056       2100       376.735
0.189678       2200       374.095
0.1983       2300       371.577
0.206922       2400       369.17
0.215543       2500       366.865
0.224165       2600       364.655
0.232787       2700       362.532
0.241409       2800       360.49
0.25003       2900       358.525
0.258652       3000       356.63
0.267274       3100       354.801
0.275896       3200       353.035
0.284517       3300       351.327
0.293139       3400       349.675
0.301761       3500       348.075
0.310383       3600       346.524
0.319004       3700       345.02
0.327626       3800       343.56
0.336248       3900       342.143
0.34487       4000       340.766
0.353491       4100       339.426
0.362113       4200       338.124
0.370735       4300       336.856
0.379356       4400       335.621
0.387978       4500       334.418
0.3966       4600       333.246
0.405222       4700       332.103
0.413843       4800       330.988
0.422465       4900       329.899
0.431087       5000       328.836
0.439709       5100       327.798
0.44833       5200       326.784
0.456952       5300       325.793
0.465574       5400       324.823
0.474196       5500       323.875
0.482817       5600       322.948
0.491439       5700       322.04
0.500061       5800       321.151
0.508683       5900       320.28
0.517304       6000       319.427
0.525926       6100       318.592
0.534548       6200       317.772
0.543169       6300       316.969
0.551791       6400       316.181
0.560413       6500       315.409
0.569035       6600       314.65
0.577656       6700       313.906
0.586278       6800       313.176
0.5949       6900       312.458
0.603522       7000       311.754
0.612143       7100       311.061
0.620765       7200       310.381
0.629387       7300       309.713
0.638009       7400       309.056
0.64663       7500       308.409
0.655252       7600       307.774
0.663874       7700       307.149
0.672496       7800       306.534
0.681117       7900       305.929
0.689739       8000       305.333
0.698361       8100       304.747
0.706983       8200       304.17
0.715604       8300       303.602
0.724226       8400       303.042
0.732848       8500       302.491
0.741469       8600       301.947
0.750091       8700       301.412
0.758713       8800       300.884
0.767335       8900       300.364
0.775956       9000       299.852
0.784578       9100       299.346
0.7932       9200       298.848
0.801822       9300       298.356
0.810443       9400       297.871
0.819065       9500       297.392
0.827687       9600       296.92
0.836309       9700       296.454
0.84493       9800       295.994
0.853552       9900       295.54
0.862174       10000       295.092
0.870796       10100       294.65
0.879417       10200       294.213
0.888039       10300       293.781
0.896661       10400       293.355
0.905282       10500       292.934
0.913904       10600       292.518
0.922526       10700       292.107
0.931148       10800       291.701
0.939769       10900       291.299
0.948391       11000       290.902
0.957013       11100       290.51
0.965635       11200       290.122
0.974256       11300       289.739
0.982878       11400       289.359
0.9915       11500       288.985
1.00012       11600       288.614
1.00874       11700       288.247
1.01737       11800       287.884
1.02599       11900       287.525
1.03461       12000       287.17
1.04323       12100       286.818
1.05185       12200       286.47
1.06047       12300       286.126
1.0691       12400       285.785
1.07772       12500       285.448
1.08634       12600       285.114
1.09496       12700       284.784
1.10358       12800       284.456
1.1122       12900       284.132
1.12083       13000       283.811
1.12945       13100       283.494
1.13807       13200       283.179
1.14669       13300       282.867
1.15531       13400       282.558
1.16393       13500       282.252
1.17256       13600       281.949
1.18118       13700       281.648
1.1898       13800       281.351
1.19842       13900       281.056
1.20704       14000       280.764
1.21567       14100       280.474
1.22429       14200       280.187
1.23291       14300       279.902
1.24153       14400       279.62
1.25015       14500       279.34
1.25877       14600       279.063
1.2674       14700       278.788
1.27602       14800       278.515
1.28464       14900       278.245
1.29326       15000       277.977
1.30188       15100       277.711
1.3105       15200       277.447
1.31913       15300       277.186
1.32775       15400       276.926
1.33637       15500       276.669
1.34499       15600       276.413
1.35361       15700       276.16
1.36223       15800       275.909
1.37086       15900       275.659
1.37948       16000       275.412
1.3881       16100       275.166
1.39672       16200       274.923
1.40534       16300       274.681
1.41397       16400       274.441
1.42259       16500       274.203
1.43121       16600       273.967
1.43983       16700       273.732
1.44845       16800       273.499
1.45707       16900       273.268
1.4657       17000       273.038
1.47432       17100       272.81
1.48294       17200       272.584
1.49156       17300       272.359
1.50018       17400       272.136
1.5088       17500       271.915
1.51743       17600       271.695
1.52605       17700       271.476
1.53467       17800       271.259
1.54329       17900       271.044
1.55191       18000       270.83
1.56053       18100       270.617
1.56916       18200       270.406
1.57778       18300       270.196
1.5864       18400       269.988
1.59502       18500       269.781
1.60364       18600       269.576
1.61227       18700       269.371
1.62089       18800       269.168
1.62951       18900       268.967
1.63813       19000       268.766
1.64675       19100       268.567
1.65537       19200       268.369
1.664       19300       268.173
1.67262       19400       267.978
1.68124       19500       267.783
1.68986       19600       267.59
1.69848       19700       267.399
1.7071       19800       267.208
1.71573       19900       267.019
1.72435       20000       266.83
1.73297       20100       266.643
1.74159       20200       266.457
1.75021       20300       266.272
1.75883       20400       266.089
1.76746       20500       265.906
1.77608       20600       265.724
1.7847       20700       265.543
1.79332       20800       265.364
1.80194       20900       265.185
1.81056       21000       265.008
1.81919       21100       264.831
1.82781       21200       264.656
1.83643       21300       264.481
1.84505       21400       264.308
1.85367       21500       264.135
1.8623       21600       263.963
1.87092       21700       263.793
1.87954       21800       263.623
1.88816       21900       263.454
1.89678       22000       263.286
1.9054       22100       263.119
1.91403       22200       262.953
1.92265       22300       262.788
1.93127       22400       262.624
1.93989       22500       262.46
1.94851       22600       262.297
1.95713       22700       262.136
1.96576       22800       261.975
1.97438       22900       261.815
1.983       23000       261.655
1.99162       23100       261.497
2.00024       23200       261.339
2.00886       23300       261.182
2.01749       23400       261.026
2.02611       23500       260.871
2.03473       23600       260.717
2.04335       23700       260.563
2.05197       23800       260.41
2.0606       23900       260.258
2.06922       24000       260.106
2.07784       24100       259.956
2.08646       24200       259.806
2.09508       24300       259.657
2.1037       24400       259.508
2.11233       24500       259.36
2.12095       24600       259.213
2.12957       24700       259.067
2.13819       24800       258.921
2.14681       24900       258.776
2.15543       25000       258.632
2.16406       25100       258.488
2.17268       25200       258.345
2.1813       25300       258.203
2.18992       25400       258.061
2.19854       25500       257.92
2.20716       25600       257.78
2.21579       25700       257.64
2.22441       25800       257.501
2.23303       25900       257.362
2.24165       26000       257.225
2.25027       26100       257.087
2.2589       26200       256.951
2.26752       26300       256.815
2.27614       26400       256.679
2.28476       26500       256.545
2.29338       26600       256.41
2.302       26700       256.277
2.31063       26800       256.144
2.31925       26900       256.011
2.32787       27000       255.879
2.33649       27100       255.748
2.34511       27200       255.617
2.35373       27300       255.487
2.36236       27400       255.357
2.37098       27500       255.228
2.3796       27600       255.1
2.38822       27700       254.972
2.39684       27800       254.844
2.40546       27900       254.717
2.41409       28000       254.591
2.42271       28100       254.465
2.43133       28200       254.339
2.43995       28300       254.215
2.44857       28400       254.09
2.4572       28500       253.966
2.46582       28600       253.843
2.47444       28700       253.72
2.48306       28800       253.598
2.49168       28900       253.476
2.5003       29000       253.354
2.50893       29100       253.233
2.51755       29200       253.113
2.52617       29300       252.993
2.53479       29400       252.873
2.54341       29500       252.754
2.55203       29600       252.636
2.56066       29700       252.518
2.56928       29800       252.4
2.5779       29900       252.283
2.58652       30000       252.166
2.59514       30100       252.05
2.60376       30200       251.934
2.61239       30300       251.819
2.62101       30400       251.704
2.62963       30500       251.589
2.63825       30600       251.475
2.64687       30700       251.361
2.6555       30800       251.248
2.66412       30900       251.135
2.67274       31000       251.023
2.68136       31100       250.911
2.68998       31200       250.799
2.6986       31300       250.688
2.70723       31400       250.577
2.71585       31500       250.467
2.72447       31600       250.357
2.73309       31700       250.247
2.74171       31800       250.138
2.75033       31900       250.029
2.75896       32000       249.921
2.76758       32100       249.813
2.7762       32200       249.705
2.78482       32300       249.598
2.79344       32400       249.491
2.80206       32500       249.384
2.81069       32600       249.278
2.81931       32700       249.172
2.82793       32800       249.067
2.83655       32900       248.962
2.84517       33000       248.857
2.8538       33100       248.753
2.86242       33200       248.649
2.87104       33300       248.545
2.87966       33400       248.442
2.88828       33500       248.339
2.8969       33600       248.237
2.90553       33700       248.135
2.91415       33800       248.033
2.92277       33900       247.931
2.93139       34000       247.83
2.94001       34100       247.729
2.94863       34200       247.629
2.95726       34300       247.528
2.96588       34400       247.429
2.9745       34500       247.329
2.98312       34600       247.23
2.99174       34700       247.131
3.00036       34800       247.033
3.00899       34900       246.934
3.01761       35000       246.836
3.02623       35100       246.739
3.03485       35200       246.642
3.04347       35300       246.545
3.0521       35400       246.448
3.06072       35500       246.352
3.06934       35600       246.256
3.07796       35700       246.16
3.08658       35800       246.064
3.0952       35900       245.969
3.10383       36000       245.874
3.11245       36100       245.78
3.12107       36200       245.686
3.12969       36300       245.592
3.13831       36400       245.498
3.14693       36500       245.405
3.15556       36600       245.312
3.16418       36700       245.219
3.1728       36800       245.126
3.18142       36900       245.034
3.19004       37000       244.942
3.19866       37100       244.851
3.20729       37200       244.759
3.21591       37300       244.668
3.22453       37400       244.577
3.23315       37500       244.487
3.24177       37600       244.397
3.2504       37700       244.307
3.25902       37800       244.217
3.26764       37900       244.127
3.27626       38000       244.038
3.28488       38100       243.949
3.2935       38200       243.86
3.30213       38300       243.772
3.31075       38400       243.684
3.31937       38500       243.596
3.32799       38600       243.508
3.33661       38700       243.421
3.34523       38800       243.334
3.35386       38900       243.247
3.36248       39000       243.16
3.3711       39100       243.074
3.37972       39200       242.988
3.38834       39300       242.902
3.39696       39400       242.816
3.40559       39500       242.731
3.41421       39600       242.646
3.42283       39700       242.561
3.43145       39800       242.476
3.44007       39900       242.391
3.4487       40000       242.307
3.45732       40100       242.223
3.46594       40200       242.14
3.47456       40300       242.056
3.48318       40400       241.973
3.4918       40500       241.89
3.50043       40600       241.807
3.50905       40700       241.724
3.51767       40800       241.642
3.52629       40900       241.56
3.53491       41000       241.478
3.54353       41100       241.396
3.55216       41200       241.315
3.56078       41300       241.233
3.5694       41400       241.152
3.57802       41500       241.072
3.58664       41600       240.991
3.59526       41700       240.911
3.60389       41800       240.831
3.61251       41900       240.751
3.62113       42000       240.671
3.62975       42100       240.591
3.63837       42200       240.512
3.647       42300       240.433
3.65562       42400       240.354
3.66424       42500       240.275
3.67286       42600       240.197
3.68148       42700       240.119
3.6901       42800       240.04
3.69873       42900       239.963
3.70735       43000       239.885
3.71597       43100       239.807
3.72459       43200       239.73
3.73321       43300       239.653
3.74183       43400       239.576
3.75046       43500       239.5
3.75908       43600       239.423
3.7677       43700       239.347
3.77632       43800       239.271
3.78494       43900       239.195
3.79356       44000       239.119
3.80219       44100       239.044
3.81081       44200       238.968
3.81943       44300       238.893
3.82805       44400       238.818
3.83667       44500       238.743
3.8453       44600       238.669
3.85392       44700       238.595
3.86254       44800       238.52
3.87116       44900       238.446
3.87978       45000       238.372
3.8884       45100       238.299
3.89703       45200       238.225
3.90565       45300       238.152
3.91427       45400       238.079
3.92289       45500       238.006
3.93151       45600       237.933
3.94013       45700       237.861
3.94876       45800       237.788
3.95738       45900       237.716
3.966       46000       237.644
3.97462       46100       237.572
3.98324       46200       237.5
3.99186       46300       237.429
4.00049       46400       237.358
4.00911       46500       237.286
4.01773       46600       237.215
4.02635       46700       237.144
4.03497       46800       237.074
4.0436       46900       237.003
4.05222       47000       236.933
4.06084       47100       236.863
4.06946       47200       236.793
4.07808       47300       236.723
4.0867       47400       236.653
4.09533       47500       236.584
4.10395       47600       236.514
4.11257       47700       236.445
4.12119       47800       236.376
4.12981       47900       236.307
4.13843       48000       236.238
4.14706       48100       236.17
4.15568       48200       236.101
4.1643       48300       236.033
4.17292       48400       235.965
4.18154       48500       235.897
4.19016       48600       235.829
4.19879       48700       235.762
4.20741       48800       235.694
4.21603       48900       235.627
4.22465       49000       235.56
4.23327       49100       235.493
4.2419       49200       235.426
4.25052       49300       235.359
4.25914       49400       235.293
4.26776       49500       235.226
4.27638       49600       235.16
4.285       49700       235.094
4.29363       49800       235.028
4.30225       49900       234.962
4.31087       50000       234.896
4.31949       50100       234.831
4.32811       50200       234.765
4.33673       50300       234.7
4.34536       50400       234.635
4.35398       50500       234.57
4.3626       50600       234.505
4.37122       50700       234.44
4.37984       50800       234.376
4.38846       50900       234.311
4.39709       51000       234.247
4.40571       51100       234.183
4.41433       51200       234.119
4.42295       51300       234.055
4.43157       51400       233.991
4.4402       51500       233.928
4.44882       51600       233.864
4.45744       51700       233.801
4.46606       51800       233.738
4.47468       51900       233.675
4.4833       52000       233.612
4.49193       52100       233.549
4.50055       52200       233.487
4.50917       52300       233.424
4.51779       52400       233.362
4.52641       52500       233.299
4.53503       52600       233.237
4.54366       52700       233.175
4.55228       52800       233.113
4.5609       52900       233.052
4.56952       53000       232.99
4.57814       53100       232.929
4.58676       53200       232.867
4.59539       53300       232.806
4.60401       53400       232.745
4.61263       53500       232.684
4.62125       53600       232.623
4.62987       53700       232.562
4.6385       53800       232.502
4.64712       53900       232.441
4.65574       54000       232.381
4.66436       54100       232.321
4.67298       54200       232.261
4.6816       54300       232.201
4.69023       54400       232.141
4.69885       54500       232.081
4.70747       54600       232.022
4.71609       54700       231.962
4.72471       54800       231.903
4.73333       54900       231.843
4.74196       55000       231.784
4.75058       55100       231.725
4.7592       55200       231.666
4.76782       55300       231.608
4.77644       55400       231.549
4.78506       55500       231.49
4.79369       55600       231.432
4.80231       55700       231.374
4.81093       55800       231.315
4.81955       55900       231.257
4.82817       56000       231.199
4.8368       56100       231.141
4.84542       56200       231.084
4.85404       56300       231.026
4.86266       56400       230.969
4.87128       56500       230.911
4.8799       56600       230.854
4.88853       56700       230.797
4.89715       56800       230.74
4.90577       56900       230.683
4.91439       57000       230.626
4.92301       57100       230.569
4.93163       57200       230.512
4.94026       57300       230.456
4.94888       57400       230.399
4.9575       57500       230.343
