; The collision integrals Q_{i,j}^{11} are exponential fit function obtained from 
; Transport properties of high-temperature Jupiter atmosphere components, D. Bruno, C. Catalfamo, M. Capitelli, G. Colonna, O. De Pascale et al., Phys. Plasmas 17, 112315 (2010), doi: 10.1063/1.3495980, Published by the American Institute of Physics
; 
; 
; To obtain these collision integrals, the original data (transport cross section Q^l_{i,j} or elastic collision differential cross section) are obtained from:
;
; 1)Y. Li and C. D. Lin, Phys. Rev. A 60, 2009 1999.
; 2)R. E. Olson and B. Liu, Phys. Rev. A 22, 1389 1980.
; 
; 1 atomic unit of square distance = 2.80e-17 cm^2
; 1eV = 11604K

2.80e-17


;        E             T             Q11
;       (eV)         (K)         (a.u.)

0.0862174       1000       39.0951
0.0948391       1100       37.9343
0.103461       1200       36.8845
0.112083       1300       35.9272
0.120704       1400       35.0485
0.129326       1500       34.2371
0.137948       1600       33.4841
0.14657       1700       32.7821
0.155191       1800       32.1252
0.163813       1900       31.5083
0.172435       2000       30.9271
0.181056       2100       30.3781
0.189678       2200       29.8581
0.1983       2300       29.3645
0.206922       2400       28.8949
0.215543       2500       28.4473
0.224165       2600       28.0198
0.232787       2700       27.611
0.241409       2800       27.2194
0.25003       2900       26.8438
0.258652       3000       26.4829
0.267274       3100       26.1358
0.275896       3200       25.8016
0.284517       3300       25.4795
0.293139       3400       25.1686
0.301761       3500       24.8683
0.310383       3600       24.578
0.319004       3700       24.2972
0.327626       3800       24.0251
0.336248       3900       23.7615
0.34487       4000       23.5058
0.353491       4100       23.2576
0.362113       4200       23.0166
0.370735       4300       22.7824
0.379356       4400       22.5546
0.387978       4500       22.3329
0.3966       4600       22.1171
0.405222       4700       21.907
0.413843       4800       21.7021
0.422465       4900       21.5024
0.431087       5000       21.3075
0.439709       5100       21.1174
0.44833       5200       20.9317
0.456952       5300       20.7503
0.465574       5400       20.5731
0.474196       5500       20.3998
0.482817       5600       20.2303
0.491439       5700       20.0646
0.500061       5800       19.9023
0.508683       5900       19.7435
0.517304       6000       19.588
0.525926       6100       19.4356
0.534548       6200       19.2863
0.543169       6300       19.1399
0.551791       6400       18.9964
0.560413       6500       18.8556
0.569035       6600       18.7176
0.577656       6700       18.582
0.586278       6800       18.449
0.5949       6900       18.3184
0.603522       7000       18.1902
0.612143       7100       18.0642
0.620765       7200       17.9405
0.629387       7300       17.8188
0.638009       7400       17.6993
0.64663       7500       17.5817
0.655252       7600       17.4661
0.663874       7700       17.3524
0.672496       7800       17.2406
0.681117       7900       17.1305
0.689739       8000       17.0222
0.698361       8100       16.9156
0.706983       8200       16.8107
0.715604       8300       16.7074
0.724226       8400       16.6056
0.732848       8500       16.5054
0.741469       8600       16.4066
0.750091       8700       16.3093
0.758713       8800       16.2134
0.767335       8900       16.1189
0.775956       9000       16.0258
0.784578       9100       15.9339
0.7932       9200       15.8434
0.801822       9300       15.7541
0.810443       9400       15.666
0.819065       9500       15.5791
0.827687       9600       15.4934
0.836309       9700       15.4088
0.84493       9800       15.3254
0.853552       9900       15.243
0.862174       10000       15.1617
0.870796       10100       15.0814
0.879417       10200       15.0022
0.888039       10300       14.9239
0.896661       10400       14.8467
0.905282       10500       14.7704
0.913904       10600       14.695
0.922526       10700       14.6205
0.931148       10800       14.547
0.939769       10900       14.4743
0.948391       11000       14.4025
0.957013       11100       14.3315
0.965635       11200       14.2613
0.974256       11300       14.192
0.982878       11400       14.1235
0.9915       11500       14.0557
1.00012       11600       13.9887
1.00874       11700       13.9225
1.01737       11800       13.857
1.02599       11900       13.7922
1.03461       12000       13.7281
1.04323       12100       13.6648
1.05185       12200       13.6021
1.06047       12300       13.54
1.0691       12400       13.4787
1.07772       12500       13.418
1.08634       12600       13.3579
1.09496       12700       13.2984
1.10358       12800       13.2396
1.1122       12900       13.1814
1.12083       13000       13.1237
1.12945       13100       13.0667
1.13807       13200       13.0102
1.14669       13300       12.9543
1.15531       13400       12.8989
1.16393       13500       12.8441
1.17256       13600       12.7898
1.18118       13700       12.736
1.1898       13800       12.6828
1.19842       13900       12.6301
1.20704       14000       12.5778
1.21567       14100       12.5261
1.22429       14200       12.4748
1.23291       14300       12.4241
1.24153       14400       12.3738
1.25015       14500       12.3239
1.25877       14600       12.2746
1.2674       14700       12.2256
1.27602       14800       12.1771
1.28464       14900       12.1291
1.29326       15000       12.0815
1.30188       15100       12.0343
1.3105       15200       11.9875
1.31913       15300       11.9411
1.32775       15400       11.8951
1.33637       15500       11.8496
1.34499       15600       11.8044
1.35361       15700       11.7596
1.36223       15800       11.7152
1.37086       15900       11.6712
1.37948       16000       11.6275
1.3881       16100       11.5842
1.39672       16200       11.5413
1.40534       16300       11.4987
1.41397       16400       11.4565
1.42259       16500       11.4146
1.43121       16600       11.373
1.43983       16700       11.3318
1.44845       16800       11.291
1.45707       16900       11.2504
1.4657       17000       11.2102
1.47432       17100       11.1703
1.48294       17200       11.1307
1.49156       17300       11.0914
1.50018       17400       11.0525
1.5088       17500       11.0138
1.51743       17600       10.9754
1.52605       17700       10.9373
1.53467       17800       10.8996
1.54329       17900       10.8621
1.55191       18000       10.8248
1.56053       18100       10.7879
1.56916       18200       10.7513
1.57778       18300       10.7149
1.5864       18400       10.6788
1.59502       18500       10.6429
1.60364       18600       10.6073
1.61227       18700       10.572
1.62089       18800       10.5369
1.62951       18900       10.5021
1.63813       19000       10.4676
1.64675       19100       10.4333
1.65537       19200       10.3992
1.664       19300       10.3654
1.67262       19400       10.3318
1.68124       19500       10.2984
1.68986       19600       10.2653
1.69848       19700       10.2324
1.7071       19800       10.1998
1.71573       19900       10.1673
1.72435       20000       10.1351
1.73297       20100       10.1031
1.74159       20200       10.0713
1.75021       20300       10.0398
1.75883       20400       10.0084
1.76746       20500       9.97731
1.77608       20600       9.94639
1.7847       20700       9.91567
1.79332       20800       9.88515
1.80194       20900       9.85484
1.81056       21000       9.82473
1.81919       21100       9.79481
1.82781       21200       9.76509
1.83643       21300       9.73556
1.84505       21400       9.70622
1.85367       21500       9.67707
1.8623       21600       9.6481
1.87092       21700       9.61933
1.87954       21800       9.59073
1.88816       21900       9.56232
1.89678       22000       9.53408
1.9054       22100       9.50602
1.91403       22200       9.47814
1.92265       22300       9.45043
1.93127       22400       9.42289
1.93989       22500       9.39552
1.94851       22600       9.36832
1.95713       22700       9.34129
1.96576       22800       9.31442
1.97438       22900       9.28772
1.983       23000       9.26118
1.99162       23100       9.23479
2.00024       23200       9.20857
2.00886       23300       9.1825
2.01749       23400       9.15659
2.02611       23500       9.13083
2.03473       23600       9.10522
2.04335       23700       9.07976
2.05197       23800       9.05446
2.0606       23900       9.0293
2.06922       24000       9.00429
2.07784       24100       8.97942
2.08646       24200       8.9547
2.09508       24300       8.93012
2.1037       24400       8.90567
2.11233       24500       8.88137
2.12095       24600       8.85721
2.12957       24700       8.83319
2.13819       24800       8.8093
2.14681       24900       8.78554
2.15543       25000       8.76192
2.16406       25100       8.73843
2.17268       25200       8.71507
2.1813       25300       8.69184
2.18992       25400       8.66874
2.19854       25500       8.64576
2.20716       25600       8.62292
2.21579       25700       8.60019
2.22441       25800       8.57759
2.23303       25900       8.55512
2.24165       26000       8.53276
2.25027       26100       8.51053
2.2589       26200       8.48841
2.26752       26300       8.46642
2.27614       26400       8.44454
2.28476       26500       8.42278
2.29338       26600       8.40113
2.302       26700       8.3796
2.31063       26800       8.35818
2.31925       26900       8.33687
2.32787       27000       8.31567
2.33649       27100       8.29459
2.34511       27200       8.27361
2.35373       27300       8.25274
2.36236       27400       8.23198
2.37098       27500       8.21133
2.3796       27600       8.19078
2.38822       27700       8.17034
2.39684       27800       8.15
2.40546       27900       8.12977
2.41409       28000       8.10964
2.42271       28100       8.08961
2.43133       28200       8.06967
2.43995       28300       8.04984
2.44857       28400       8.03011
2.4572       28500       8.01048
2.46582       28600       7.99094
2.47444       28700       7.9715
2.48306       28800       7.95216
2.49168       28900       7.93291
2.5003       29000       7.91376
2.50893       29100       7.8947
2.51755       29200       7.87573
2.52617       29300       7.85685
2.53479       29400       7.83807
2.54341       29500       7.81937
2.55203       29600       7.80077
2.56066       29700       7.78225
2.56928       29800       7.76383
2.5779       29900       7.74549
2.58652       30000       7.72724
2.59514       30100       7.70907
2.60376       30200       7.69099
2.61239       30300       7.673
2.62101       30400       7.65509
2.62963       30500       7.63726
2.63825       30600       7.61952
2.64687       30700       7.60186
2.6555       30800       7.58428
2.66412       30900       7.56678
2.67274       31000       7.54937
2.68136       31100       7.53203
2.68998       31200       7.51477
2.6986       31300       7.49759
2.70723       31400       7.48049
2.71585       31500       7.46347
2.72447       31600       7.44653
2.73309       31700       7.42966
2.74171       31800       7.41286
2.75033       31900       7.39615
2.75896       32000       7.3795
2.76758       32100       7.36293
2.7762       32200       7.34644
2.78482       32300       7.33002
2.79344       32400       7.31367
2.80206       32500       7.29739
2.81069       32600       7.28119
2.81931       32700       7.26506
2.82793       32800       7.24899
2.83655       32900       7.233
2.84517       33000       7.21708
2.8538       33100       7.20122
2.86242       33200       7.18544
2.87104       33300       7.16972
2.87966       33400       7.15407
2.88828       33500       7.13849
2.8969       33600       7.12297
2.90553       33700       7.10752
2.91415       33800       7.09214
2.92277       33900       7.07682
2.93139       34000       7.06157
2.94001       34100       7.04638
2.94863       34200       7.03125
2.95726       34300       7.01619
2.96588       34400       7.0012
2.9745       34500       6.98626
2.98312       34600       6.97139
2.99174       34700       6.95658
3.00036       34800       6.94183
3.00899       34900       6.92714
3.01761       35000       6.91251
3.02623       35100       6.89794
3.03485       35200       6.88343
3.04347       35300       6.86898
3.0521       35400       6.85459
3.06072       35500       6.84026
3.06934       35600       6.82599
3.07796       35700       6.81177
3.08658       35800       6.79762
3.0952       35900       6.78352
3.10383       36000       6.76947
3.11245       36100       6.75548
3.12107       36200       6.74155
3.12969       36300       6.72768
3.13831       36400       6.71386
3.14693       36500       6.70009
3.15556       36600       6.68638
3.16418       36700       6.67272
3.1728       36800       6.65912
3.18142       36900       6.64557
3.19004       37000       6.63207
3.19866       37100       6.61863
3.20729       37200       6.60524
3.21591       37300       6.5919
3.22453       37400       6.57861
3.23315       37500       6.56538
3.24177       37600       6.55219
3.2504       37700       6.53906
3.25902       37800       6.52597
3.26764       37900       6.51294
3.27626       38000       6.49996
3.28488       38100       6.48702
3.2935       38200       6.47414
3.30213       38300       6.4613
3.31075       38400       6.44852
3.31937       38500       6.43578
3.32799       38600       6.42309
3.33661       38700       6.41045
3.34523       38800       6.39785
3.35386       38900       6.3853
3.36248       39000       6.3728
3.3711       39100       6.36035
3.37972       39200       6.34794
3.38834       39300       6.33558
3.39696       39400       6.32326
3.40559       39500       6.31099
3.41421       39600       6.29877
3.42283       39700       6.28659
3.43145       39800       6.27445
3.44007       39900       6.26236
3.4487       40000       6.25031
3.45732       40100       6.23831
3.46594       40200       6.22635
3.47456       40300       6.21443
3.48318       40400       6.20256
3.4918       40500       6.19073
3.50043       40600       6.17894
3.50905       40700       6.1672
3.51767       40800       6.1555
3.52629       40900       6.14383
3.53491       41000       6.13221
3.54353       41100       6.12064
3.55216       41200       6.1091
3.56078       41300       6.0976
3.5694       41400       6.08615
3.57802       41500       6.07473
3.58664       41600       6.06336
3.59526       41700       6.05203
3.60389       41800       6.04073
3.61251       41900       6.02948
3.62113       42000       6.01826
3.62975       42100       6.00708
3.63837       42200       5.99595
3.647       42300       5.98485
3.65562       42400       5.97379
3.66424       42500       5.96276
3.67286       42600       5.95178
3.68148       42700       5.94083
3.6901       42800       5.92992
3.69873       42900       5.91905
3.70735       43000       5.90822
3.71597       43100       5.89742
3.72459       43200       5.88666
3.73321       43300       5.87594
3.74183       43400       5.86525
3.75046       43500       5.8546
3.75908       43600       5.84398
3.7677       43700       5.8334
3.77632       43800       5.82286
3.78494       43900       5.81235
3.79356       44000       5.80187
3.80219       44100       5.79144
3.81081       44200       5.78103
3.81943       44300       5.77066
3.82805       44400       5.76033
3.83667       44500       5.75003
3.8453       44600       5.73976
3.85392       44700       5.72953
3.86254       44800       5.71933
3.87116       44900       5.70917
3.87978       45000       5.69903
3.8884       45100       5.68893
3.89703       45200       5.67887
3.90565       45300       5.66884
3.91427       45400       5.65884
3.92289       45500       5.64887
3.93151       45600       5.63893
3.94013       45700       5.62903
3.94876       45800       5.61916
3.95738       45900       5.60932
3.966       46000       5.59951
3.97462       46100       5.58973
3.98324       46200       5.57999
3.99186       46300       5.57028
4.00049       46400       5.56059
4.00911       46500       5.55094
4.01773       46600       5.54132
4.02635       46700       5.53173
4.03497       46800       5.52217
4.0436       46900       5.51264
4.05222       47000       5.50314
4.06084       47100       5.49367
4.06946       47200       5.48423
4.07808       47300       5.47482
4.0867       47400       5.46543
4.09533       47500       5.45608
4.10395       47600       5.44676
4.11257       47700       5.43746
4.12119       47800       5.4282
4.12981       47900       5.41896
4.13843       48000       5.40976
4.14706       48100       5.40058
4.15568       48200       5.39142
4.1643       48300       5.3823
4.17292       48400       5.37321
4.18154       48500       5.36414
4.19016       48600       5.3551
4.19879       48700       5.34609
4.20741       48800       5.3371
4.21603       48900       5.32815
4.22465       49000       5.31922
4.23327       49100       5.31031
4.2419       49200       5.30144
4.25052       49300       5.29259
4.25914       49400       5.28377
4.26776       49500       5.27497
4.27638       49600       5.2662
4.285       49700       5.25746
4.29363       49800       5.24874
4.30225       49900       5.24005
4.31087       50000       5.23139
4.31949       50100       5.22275
4.32811       50200       5.21413
4.33673       50300       5.20555
4.34536       50400       5.19698
4.35398       50500       5.18845
4.3626       50600       5.17993
4.37122       50700       5.17145
4.37984       50800       5.16298
4.38846       50900       5.15455
4.39709       51000       5.14613
4.40571       51100       5.13775
4.41433       51200       5.12938
4.42295       51300       5.12104
4.43157       51400       5.11273
4.4402       51500       5.10444
4.44882       51600       5.09617
4.45744       51700       5.08793
4.46606       51800       5.07971
4.47468       51900       5.07151
4.4833       52000       5.06334
4.49193       52100       5.05519
4.50055       52200       5.04707
4.50917       52300       5.03897
4.51779       52400       5.03089
4.52641       52500       5.02283
4.53503       52600       5.0148
4.54366       52700       5.00679
4.55228       52800       4.9988
4.5609       52900       4.99084
4.56952       53000       4.98289
4.57814       53100       4.97497
4.58676       53200       4.96708
4.59539       53300       4.9592
4.60401       53400       4.95135
4.61263       53500       4.94352
4.62125       53600       4.93571
4.62987       53700       4.92792
4.6385       53800       4.92016
4.64712       53900       4.91241
4.65574       54000       4.90469
4.66436       54100       4.89699
4.67298       54200       4.88931
4.6816       54300       4.88165
4.69023       54400       4.87401
4.69885       54500       4.8664
4.70747       54600       4.8588
4.71609       54700       4.85123
4.72471       54800       4.84367
4.73333       54900       4.83614
4.74196       55000       4.82863
4.75058       55100       4.82113
4.7592       55200       4.81366
4.76782       55300       4.80621
4.77644       55400       4.79878
4.78506       55500       4.79137
4.79369       55600       4.78398
4.80231       55700       4.77661
4.81093       55800       4.76926
4.81955       55900       4.76193
4.82817       56000       4.75461
4.8368       56100       4.74732
4.84542       56200       4.74005
4.85404       56300       4.7328
4.86266       56400       4.72556
4.87128       56500       4.71835
4.8799       56600       4.71115
4.88853       56700       4.70398
4.89715       56800       4.69682
4.90577       56900       4.68968
4.91439       57000       4.68256
4.92301       57100       4.67546
4.93163       57200       4.66838
4.94026       57300       4.66132
4.94888       57400       4.65428
4.9575       57500       4.64725
4.96612       57600       4.64024
4.97474       57700       4.63325
4.98336       57800       4.62628
