; The collision integrals Q_{i,j}^{11} are exponential fit function obtained from 
; Transport properties of high-temperature Jupiter atmosphere components, D. Bruno, C. Catalfamo, M. Capitelli, G. Colonna, O. De Pascale et al., Phys. Plasmas 17, 112315 (2010), doi: 10.1063/1.3495980, Published by the American Institute of Physics
; 
; 
; To obtain these collision integrals, the original data (transport cross section Q^l_{i,j} or elastic collision differential cross section) are obtained from:
;
; 1) R. K. Janev, W. D. Langer, K. Evans, Jr., and D. E. Post, Jr., ElementaryProcesses in Hydrogen-Helium Plasmas Springer-Verlag, Berlin, 1987.
;
; 1 atomic unit of square distance = 2.80e-17 cm^2
; 1eV = 11604K

2.80e-17


;        E             T             Q11
;       (eV)         (K)         (a.u.)

0.0862174       1000       153.947
0.0948391       1100       147.997
0.103461       1200       142.824
0.112083       1300       138.276
0.120704       1400       134.237
0.129326       1500       130.619
0.137948       1600       127.354
0.14657       1700       124.39
0.155191       1800       121.683
0.163813       1900       119.199
0.172435       2000       116.909
0.181056       2100       114.789
0.189678       2200       112.819
0.1983       2300       110.982
0.206922       2400       109.265
0.215543       2500       107.655
0.224165       2600       106.141
0.232787       2700       104.715
0.241409       2800       103.368
0.25003       2900       102.093
0.258652       3000       100.884
0.267274       3100       99.7358
0.275896       3200       98.6433
0.284517       3300       97.6021
0.293139       3400       96.6085
0.301761       3500       95.6589
0.310383       3600       94.7503
0.319004       3700       93.8796
0.327626       3800       93.0445
0.336248       3900       92.2425
0.34487       4000       91.4716
0.353491       4100       90.7297
0.362113       4200       90.0152
0.370735       4300       89.3263
0.379356       4400       88.6616
0.387978       4500       88.0198
0.3966       4600       87.3994
0.405222       4700       86.7995
0.413843       4800       86.2187
0.422465       4900       85.6563
0.431087       5000       85.1112
0.439709       5100       84.5825
0.44833       5200       84.0695
0.456952       5300       83.5714
0.465574       5400       83.0874
0.474196       5500       82.617
0.482817       5600       82.1595
0.491439       5700       81.7143
0.500061       5800       81.2808
0.508683       5900       80.8587
0.517304       6000       80.4473
0.525926       6100       80.0462
0.534548       6200       79.6551
0.543169       6300       79.2734
0.551791       6400       78.9009
0.560413       6500       78.5371
0.569035       6600       78.1818
0.577656       6700       77.8346
0.586278       6800       77.4951
0.5949       6900       77.1632
0.603522       7000       76.8385
0.612143       7100       76.5207
0.620765       7200       76.2097
0.629387       7300       75.9052
0.638009       7400       75.6069
0.64663       7500       75.3147
0.655252       7600       75.0283
0.663874       7700       74.7476
0.672496       7800       74.4724
0.681117       7900       74.2024
0.689739       8000       73.9375
0.698361       8100       73.6777
0.706983       8200       73.4226
0.715604       8300       73.1721
0.724226       8400       72.9262
0.732848       8500       72.6847
0.741469       8600       72.4474
0.750091       8700       72.2142
0.758713       8800       71.9851
0.767335       8900       71.7598
0.775956       9000       71.5383
0.784578       9100       71.3205
0.7932       9200       71.1063
0.801822       9300       70.8955
0.810443       9400       70.6881
0.819065       9500       70.484
0.827687       9600       70.2831
0.836309       9700       70.0853
0.84493       9800       69.8905
0.853552       9900       69.6987
0.862174       10000       69.5098
0.870796       10100       69.3237
0.879417       10200       69.1403
0.888039       10300       68.9596
0.896661       10400       68.7815
0.905282       10500       68.606
0.913904       10600       68.4329
0.922526       10700       68.2622
0.931148       10800       68.0939
0.939769       10900       67.928
0.948391       11000       67.7642
0.957013       11100       67.6027
0.965635       11200       67.4433
0.974256       11300       67.2861
0.982878       11400       67.1309
0.9915       11500       66.9777
1.00012       11600       66.8265
1.00874       11700       66.6772
1.01737       11800       66.5298
1.02599       11900       66.3842
1.03461       12000       66.2404
1.04323       12100       66.0984
1.05185       12200       65.9582
1.06047       12300       65.8196
1.0691       12400       65.6827
1.07772       12500       65.5474
1.08634       12600       65.4137
1.09496       12700       65.2816
1.10358       12800       65.151
1.1122       12900       65.0219
1.12083       13000       64.8943
1.12945       13100       64.7681
1.13807       13200       64.6433
1.14669       13300       64.5199
1.15531       13400       64.3979
1.16393       13500       64.2772
1.17256       13600       64.1578
1.18118       13700       64.0398
1.1898       13800       63.9229
1.19842       13900       63.8073
1.20704       14000       63.693
1.21567       14100       63.5798
1.22429       14200       63.4678
1.23291       14300       63.357
1.24153       14400       63.2472
1.25015       14500       63.1386
1.25877       14600       63.0311
1.2674       14700       62.9247
1.27602       14800       62.8193
1.28464       14900       62.715
1.29326       15000       62.6117
1.30188       15100       62.5094
1.3105       15200       62.4081
1.31913       15300       62.3077
1.32775       15400       62.2083
1.33637       15500       62.1099
1.34499       15600       62.0123
1.35361       15700       61.9157
1.36223       15800       61.82
1.37086       15900       61.7251
1.37948       16000       61.6312
1.3881       16100       61.538
1.39672       16200       61.4457
1.40534       16300       61.3543
1.41397       16400       61.2636
1.42259       16500       61.1738
1.43121       16600       61.0847
1.43983       16700       60.9965
1.44845       16800       60.909
1.45707       16900       60.8222
1.4657       17000       60.7362
1.47432       17100       60.6509
1.48294       17200       60.5663
1.49156       17300       60.4825
1.50018       17400       60.3993
1.5088       17500       60.3169
1.51743       17600       60.2351
1.52605       17700       60.154
1.53467       17800       60.0736
1.54329       17900       59.9938
1.55191       18000       59.9146
1.56053       18100       59.8361
1.56916       18200       59.7582
1.57778       18300       59.6809
1.5864       18400       59.6043
1.59502       18500       59.5282
1.60364       18600       59.4527
1.61227       18700       59.3778
1.62089       18800       59.3035
1.62951       18900       59.2298
1.63813       19000       59.1566
1.64675       19100       59.0839
1.65537       19200       59.0119
1.664       19300       58.9403
1.67262       19400       58.8693
1.68124       19500       58.7988
1.68986       19600       58.7288
1.69848       19700       58.6594
1.7071       19800       58.5904
1.71573       19900       58.522
1.72435       20000       58.454
1.73297       20100       58.3865
1.74159       20200       58.3195
1.75021       20300       58.253
1.75883       20400       58.187
1.76746       20500       58.1214
1.77608       20600       58.0562
1.7847       20700       57.9916
1.79332       20800       57.9273
1.80194       20900       57.8635
1.81056       21000       57.8002
1.81919       21100       57.7373
1.82781       21200       57.6747
1.83643       21300       57.6127
1.84505       21400       57.551
1.85367       21500       57.4897
1.8623       21600       57.4289
1.87092       21700       57.3685
1.87954       21800       57.3084
1.88816       21900       57.2487
1.89678       22000       57.1895
1.9054       22100       57.1306
1.91403       22200       57.0721
1.92265       22300       57.0139
1.93127       22400       56.9562
1.93989       22500       56.8988
1.94851       22600       56.8417
1.95713       22700       56.7851
1.96576       22800       56.7287
1.97438       22900       56.6728
1.983       23000       56.6171
1.99162       23100       56.5619
2.00024       23200       56.5069
2.00886       23300       56.4523
2.01749       23400       56.398
2.02611       23500       56.3441
2.03473       23600       56.2905
2.04335       23700       56.2372
2.05197       23800       56.1842
2.0606       23900       56.1315
2.06922       24000       56.0792
2.07784       24100       56.0271
2.08646       24200       55.9754
2.09508       24300       55.9239
2.1037       24400       55.8728
2.11233       24500       55.8219
2.12095       24600       55.7714
2.12957       24700       55.7211
2.13819       24800       55.6711
2.14681       24900       55.6215
2.15543       25000       55.572
2.16406       25100       55.5229
2.17268       25200       55.4741
2.1813       25300       55.4255
2.18992       25400       55.3772
2.19854       25500       55.3291
2.20716       25600       55.2813
2.21579       25700       55.2338
2.22441       25800       55.1866
2.23303       25900       55.1396
2.24165       26000       55.0928
2.25027       26100       55.0463
2.2589       26200       55.0001
2.26752       26300       54.9541
2.27614       26400       54.9083
2.28476       26500       54.8628
2.29338       26600       54.8176
2.302       26700       54.7725
2.31063       26800       54.7277
2.31925       26900       54.6832
2.32787       27000       54.6389
2.33649       27100       54.5948
2.34511       27200       54.5509
2.35373       27300       54.5073
2.36236       27400       54.4639
2.37098       27500       54.4207
2.3796       27600       54.3777
2.38822       27700       54.3349
2.39684       27800       54.2924
2.40546       27900       54.2501
2.41409       28000       54.2079
2.42271       28100       54.166
2.43133       28200       54.1243
2.43995       28300       54.0828
2.44857       28400       54.0416
2.4572       28500       54.0005
2.46582       28600       53.9596
2.47444       28700       53.9189
2.48306       28800       53.8784
2.49168       28900       53.8381
2.5003       29000       53.798
2.50893       29100       53.7581
2.51755       29200       53.7184
2.52617       29300       53.6789
2.53479       29400       53.6396
2.54341       29500       53.6004
2.55203       29600       53.5615
2.56066       29700       53.5227
2.56928       29800       53.4841
2.5779       29900       53.4457
2.58652       30000       53.4074
2.59514       30100       53.3694
2.60376       30200       53.3315
2.61239       30300       53.2938
2.62101       30400       53.2562
2.62963       30500       53.2189
2.63825       30600       53.1817
2.64687       30700       53.1446
2.6555       30800       53.1078
2.66412       30900       53.0711
2.67274       31000       53.0345
2.68136       31100       52.9982
2.68998       31200       52.962
2.6986       31300       52.9259
2.70723       31400       52.89
2.71585       31500       52.8543
2.72447       31600       52.8187
2.73309       31700       52.7833
2.74171       31800       52.7481
2.75033       31900       52.7129
2.75896       32000       52.678
2.76758       32100       52.6432
2.7762       32200       52.6085
2.78482       32300       52.574
2.79344       32400       52.5397
2.80206       32500       52.5055
2.81069       32600       52.4714
2.81931       32700       52.4375
2.82793       32800       52.4037
2.83655       32900       52.3701
2.84517       33000       52.3366
2.8538       33100       52.3032
2.86242       33200       52.27
2.87104       33300       52.2369
2.87966       33400       52.204
2.88828       33500       52.1712
2.8969       33600       52.1385
2.90553       33700       52.1059
2.91415       33800       52.0735
2.92277       33900       52.0413
2.93139       34000       52.0091
2.94001       34100       51.9771
2.94863       34200       51.9452
2.95726       34300       51.9135
2.96588       34400       51.8818
2.9745       34500       51.8503
2.98312       34600       51.819
2.99174       34700       51.7877
3.00036       34800       51.7566
3.00899       34900       51.7256
3.01761       35000       51.6947
3.02623       35100       51.6639
3.03485       35200       51.6333
3.04347       35300       51.6028
3.0521       35400       51.5724
3.06072       35500       51.5421
3.06934       35600       51.5119
3.07796       35700       51.4819
3.08658       35800       51.4519
3.0952       35900       51.4221
3.10383       36000       51.3924
3.11245       36100       51.3628
3.12107       36200       51.3333
3.12969       36300       51.3039
3.13831       36400       51.2747
3.14693       36500       51.2455
3.15556       36600       51.2165
3.16418       36700       51.1875
3.1728       36800       51.1587
3.18142       36900       51.13
3.19004       37000       51.1014
3.19866       37100       51.0729
3.20729       37200       51.0445
3.21591       37300       51.0162
3.22453       37400       50.988
3.23315       37500       50.9599
3.24177       37600       50.9319
3.2504       37700       50.904
3.25902       37800       50.8762
3.26764       37900       50.8485
3.27626       38000       50.821
3.28488       38100       50.7935
3.2935       38200       50.7661
3.30213       38300       50.7388
3.31075       38400       50.7116
3.31937       38500       50.6845
3.32799       38600       50.6575
3.33661       38700       50.6306
3.34523       38800       50.6038
3.35386       38900       50.577
3.36248       39000       50.5504
3.3711       39100       50.5239
3.37972       39200       50.4974
3.38834       39300       50.4711
3.39696       39400       50.4448
3.40559       39500       50.4187
3.41421       39600       50.3926
3.42283       39700       50.3666
3.43145       39800       50.3407
3.44007       39900       50.3149
3.4487       40000       50.2892
3.45732       40100       50.2635
3.46594       40200       50.238
3.47456       40300       50.2125
3.48318       40400       50.1872
3.4918       40500       50.1619
3.50043       40600       50.1367
3.50905       40700       50.1115
3.51767       40800       50.0865
3.52629       40900       50.0615
3.53491       41000       50.0367
3.54353       41100       50.0119
3.55216       41200       49.9872
3.56078       41300       49.9625
3.5694       41400       49.938
3.57802       41500       49.9135
3.58664       41600       49.8891
3.59526       41700       49.8648
3.60389       41800       49.8406
3.61251       41900       49.8164
3.62113       42000       49.7924
3.62975       42100       49.7684
3.63837       42200       49.7445
3.647       42300       49.7206
3.65562       42400       49.6968
3.66424       42500       49.6732
3.67286       42600       49.6495
3.68148       42700       49.626
3.6901       42800       49.6025
3.69873       42900       49.5791
3.70735       43000       49.5558
3.71597       43100       49.5326
3.72459       43200       49.5094
3.73321       43300       49.4863
3.74183       43400       49.4633
3.75046       43500       49.4403
3.75908       43600       49.4174
3.7677       43700       49.3946
3.77632       43800       49.3719
3.78494       43900       49.3492
3.79356       44000       49.3266
3.80219       44100       49.3041
3.81081       44200       49.2816
3.81943       44300       49.2592
3.82805       44400       49.2369
3.83667       44500       49.2146
3.8453       44600       49.1924
3.85392       44700       49.1703
3.86254       44800       49.1482
3.87116       44900       49.1262
3.87978       45000       49.1043
3.8884       45100       49.0824
3.89703       45200       49.0606
3.90565       45300       49.0389
3.91427       45400       49.0172
3.92289       45500       48.9956
3.93151       45600       48.9741
3.94013       45700       48.9526
3.94876       45800       48.9312
3.95738       45900       48.9098
3.966       46000       48.8885
3.97462       46100       48.8673
3.98324       46200       48.8461
3.99186       46300       48.825
4.00049       46400       48.804
4.00911       46500       48.783
4.01773       46600       48.7621
4.02635       46700       48.7412
4.03497       46800       48.7204
4.0436       46900       48.6997
4.05222       47000       48.679
4.06084       47100       48.6584
4.06946       47200       48.6378
4.07808       47300       48.6173
4.0867       47400       48.5968
4.09533       47500       48.5764
4.10395       47600       48.5561
4.11257       47700       48.5358
4.12119       47800       48.5156
4.12981       47900       48.4954
4.13843       48000       48.4753
4.14706       48100       48.4553
4.15568       48200       48.4353
4.1643       48300       48.4153
4.17292       48400       48.3955
4.18154       48500       48.3756
4.19016       48600       48.3558
4.19879       48700       48.3361
4.20741       48800       48.3165
4.21603       48900       48.2968
4.22465       49000       48.2773
4.23327       49100       48.2578
4.2419       49200       48.2383
4.25052       49300       48.2189
4.25914       49400       48.1996
4.26776       49500       48.1803
4.27638       49600       48.161
4.285       49700       48.1418
4.29363       49800       48.1227
4.30225       49900       48.1036
4.31087       50000       48.0846
4.31949       50100       48.0656
4.32811       50200       48.0466
4.33673       50300       48.0277
4.34536       50400       48.0089
4.35398       50500       47.9901
4.3626       50600       47.9714
4.37122       50700       47.9527
4.37984       50800       47.934
4.38846       50900       47.9154
4.39709       51000       47.8969
4.40571       51100       47.8784
4.41433       51200       47.86
4.42295       51300       47.8416
4.43157       51400       47.8232
4.4402       51500       47.8049
4.44882       51600       47.7866
4.45744       51700       47.7684
4.46606       51800       47.7503
4.47468       51900       47.7322
4.4833       52000       47.7141
4.49193       52100       47.6961
4.50055       52200       47.6781
4.50917       52300       47.6602
4.51779       52400       47.6423
4.52641       52500       47.6244
4.53503       52600       47.6066
4.54366       52700       47.5889
4.55228       52800       47.5712
4.5609       52900       47.5535
4.56952       53000       47.5359
4.57814       53100       47.5183
4.58676       53200       47.5008
4.59539       53300       47.4833
4.60401       53400       47.4658
4.61263       53500       47.4484
4.62125       53600       47.4311
4.62987       53700       47.4138
4.6385       53800       47.3965
4.64712       53900       47.3793
4.65574       54000       47.3621
4.66436       54100       47.3449
4.67298       54200       47.3278
4.6816       54300       47.3108
4.69023       54400       47.2938
4.69885       54500       47.2768
4.70747       54600       47.2598
4.71609       54700       47.2429
4.72471       54800       47.2261
4.73333       54900       47.2093
4.74196       55000       47.1925
4.75058       55100       47.1758
4.7592       55200       47.1591
4.76782       55300       47.1424
4.77644       55400       47.1258
4.78506       55500       47.1092
4.79369       55600       47.0927
4.80231       55700       47.0762
4.81093       55800       47.0597
4.81955       55900       47.0433
4.82817       56000       47.0269
4.8368       56100       47.0106
4.84542       56200       46.9943
4.85404       56300       46.978
4.86266       56400       46.9618
4.87128       56500       46.9456
4.8799       56600       46.9295
4.88853       56700       46.9134
4.89715       56800       46.8973
4.90577       56900       46.8813
4.91439       57000       46.8653
4.92301       57100       46.8493
4.93163       57200       46.8334
4.94026       57300       46.8175
4.94888       57400       46.8016
4.9575       57500       46.7858
4.96612       57600       46.77
