; The collision integrals Q_{i,j}^{11} are exponential fit function obtained from 
; Transport properties of high-temperature Jupiter atmosphere components, D. Bruno, C. Catalfamo, M. Capitelli, G. Colonna, O. De Pascale et al., Phys. Plasmas 17, 112315 (2010), doi: 10.1063/1.3495980, Published by the American Institute of Physics
; 
; 
; To obtain these collision integrals, the original data (transport cross section Q^l_{i,j} or elastic collision differential cross section) are obtained from:
;
; 1) P. S. KrstiÄ‡ and D. R. Schultz, J. Phys. B 32, 3485 1999.
;
; 1 atomic unit of square distance = 2.80e-17 cm^2
; 1eV = 11604K

2.80e-17


;        E             T             Q11
;       (eV)         (K)         (a.u.)

0.0862174       1000       69.6863
0.0948391       1100       66.823
0.103461       1200       64.333
0.112083       1300       62.1375
0.120704       1400       60.1786
0.129326       1500       58.4125
0.137948       1600       56.8053
0.14657       1700       55.3309
0.155191       1800       53.9682
0.163813       1900       52.7006
0.172435       2000       51.5143
0.181056       2100       50.3982
0.189678       2200       49.3431
0.1983       2300       48.3413
0.206922       2400       47.3864
0.215543       2500       46.473
0.224165       2600       45.5966
0.232787       2700       44.7532
0.241409       2800       43.9396
0.25003       2900       43.1529
0.258652       3000       42.3908
0.267274       3100       41.6512
0.275896       3200       40.9323
0.284517       3300       40.2326
0.293139       3400       39.5507
0.301761       3500       38.8855
0.310383       3600       38.2361
0.319004       3700       37.6014
0.327626       3800       36.9809
0.336248       3900       36.3738
0.34487       4000       35.7796
0.353491       4100       35.1978
0.362113       4200       34.6278
0.370735       4300       34.0694
0.379356       4400       33.5222
0.387978       4500       32.9859
0.3966       4600       32.4601
0.405222       4700       31.9446
0.413843       4800       31.4393
0.422465       4900       30.9438
0.431087       5000       30.458
0.439709       5100       29.9817
0.44833       5200       29.5147
0.456952       5300       29.0569
0.465574       5400       28.6081
0.474196       5500       28.1681
0.482817       5600       27.7367
0.491439       5700       27.3139
0.500061       5800       26.8995
0.508683       5900       26.4934
0.517304       6000       26.0954
0.525926       6100       25.7053
0.534548       6200       25.3231
0.543169       6300       24.9486
0.551791       6400       24.5817
0.560413       6500       24.2222
0.569035       6600       23.8701
0.577656       6700       23.525
0.586278       6800       23.1871
0.5949       6900       22.856
0.603522       7000       22.5318
0.612143       7100       22.2141
0.620765       7200       21.903
0.629387       7300       21.5983
0.638009       7400       21.2999
0.64663       7500       21.0076
0.655252       7600       20.7213
0.663874       7700       20.4409
0.672496       7800       20.1663
0.681117       7900       19.8973
0.689739       8000       19.6339
0.698361       8100       19.3759
0.706983       8200       19.1231
0.715604       8300       18.8756
0.724226       8400       18.6331
0.732848       8500       18.3955
0.741469       8600       18.1629
0.750091       8700       17.9349
0.758713       8800       17.7116
0.767335       8900       17.4928
0.775956       9000       17.2784
0.784578       9100       17.0684
0.7932       9200       16.8626
0.801822       9300       16.6609
0.810443       9400       16.4632
0.819065       9500       16.2695
0.827687       9600       16.0796
0.836309       9700       15.8935
0.84493       9800       15.7111
0.853552       9900       15.5323
0.862174       10000       15.3569
0.870796       10100       15.185
0.879417       10200       15.0164
0.888039       10300       14.8511
0.896661       10400       14.689
0.905282       10500       14.53
0.913904       10600       14.3741
0.922526       10700       14.2211
0.931148       10800       14.071
0.939769       10900       13.9238
0.948391       11000       13.7793
0.957013       11100       13.6375
0.965635       11200       13.4984
0.974256       11300       13.3618
0.982878       11400       13.2278
0.9915       11500       13.0962
1.00012       11600       12.967
1.00874       11700       12.8402
1.01737       11800       12.7157
1.02599       11900       12.5934
1.03461       12000       12.4733
1.04323       12100       12.3554
1.05185       12200       12.2395
1.06047       12300       12.1257
1.0691       12400       12.0139
1.07772       12500       11.904
1.08634       12600       11.7961
1.09496       12700       11.69
1.10358       12800       11.5857
1.1122       12900       11.4833
1.12083       13000       11.3825
1.12945       13100       11.2835
1.13807       13200       11.1861
1.14669       13300       11.0904
1.15531       13400       10.9963
1.16393       13500       10.9037
1.17256       13600       10.8126
1.18118       13700       10.723
1.1898       13800       10.6349
1.19842       13900       10.5483
1.20704       14000       10.463
1.21567       14100       10.3791
1.22429       14200       10.2965
1.23291       14300       10.2152
1.24153       14400       10.1352
1.25015       14500       10.0565
1.25877       14600       9.97896
1.2674       14700       9.90265
1.27602       14800       9.82751
1.28464       14900       9.75353
1.29326       15000       9.68068
1.30188       15100       9.60892
1.3105       15200       9.53826
1.31913       15300       9.46865
1.32775       15400       9.40007
1.33637       15500       9.33252
1.34499       15600       9.26596
1.35361       15700       9.20037
1.36223       15800       9.13574
1.37086       15900       9.07205
1.37948       16000       9.00928
1.3881       16100       8.9474
1.39672       16200       8.88641
1.40534       16300       8.82629
1.41397       16400       8.76701
1.42259       16500       8.70856
1.43121       16600       8.65093
1.43983       16700       8.5941
1.44845       16800       8.53805
1.45707       16900       8.48277
1.4657       17000       8.42824
1.47432       17100       8.37445
1.48294       17200       8.32139
1.49156       17300       8.26904
1.50018       17400       8.21739
1.5088       17500       8.16643
1.51743       17600       8.11614
1.52605       17700       8.06651
1.53467       17800       8.01752
1.54329       17900       7.96918
1.55191       18000       7.92145
1.56053       18100       7.87434
1.56916       18200       7.82784
1.57778       18300       7.78192
1.5864       18400       7.73658
1.59502       18500       7.69182
1.60364       18600       7.64761
1.61227       18700       7.60396
1.62089       18800       7.56084
1.62951       18900       7.51826
1.63813       19000       7.47619
1.64675       19100       7.43464
1.65537       19200       7.39359
1.664       19300       7.35304
1.67262       19400       7.31297
1.68124       19500       7.27338
1.68986       19600       7.23426
1.69848       19700       7.19561
1.7071       19800       7.1574
1.71573       19900       7.11964
1.72435       20000       7.08233
1.73297       20100       7.04544
1.74159       20200       7.00897
1.75021       20300       6.97293
1.75883       20400       6.93729
1.76746       20500       6.90206
1.77608       20600       6.86722
1.7847       20700       6.83278
1.79332       20800       6.79872
1.80194       20900       6.76503
1.81056       21000       6.73172
1.81919       21100       6.69878
1.82781       21200       6.66619
1.83643       21300       6.63396
1.84505       21400       6.60208
1.85367       21500       6.57054
1.8623       21600       6.53934
1.87092       21700       6.50847
1.87954       21800       6.47793
1.88816       21900       6.44771
1.89678       22000       6.41781
1.9054       22100       6.38822
1.91403       22200       6.35894
1.92265       22300       6.32996
1.93127       22400       6.30128
1.93989       22500       6.2729
1.94851       22600       6.2448
1.95713       22700       6.21699
1.96576       22800       6.18946
1.97438       22900       6.16221
1.983       23000       6.13523
1.99162       23100       6.10852
2.00024       23200       6.08207
2.00886       23300       6.05589
2.01749       23400       6.02996
2.02611       23500       6.00428
2.03473       23600       5.97886
2.04335       23700       5.95368
2.05197       23800       5.92874
2.0606       23900       5.90404
2.06922       24000       5.87958
2.07784       24100       5.85535
2.08646       24200       5.83135
2.09508       24300       5.80758
2.1037       24400       5.78402
2.11233       24500       5.76069
2.12095       24600       5.73758
2.12957       24700       5.71468
2.13819       24800       5.69199
2.14681       24900       5.6695
2.15543       25000       5.64722
2.16406       25100       5.62515
2.17268       25200       5.60327
2.1813       25300       5.58159
2.18992       25400       5.56011
2.19854       25500       5.53881
2.20716       25600       5.51771
2.21579       25700       5.49679
2.22441       25800       5.47606
2.23303       25900       5.4555
2.24165       26000       5.43513
2.25027       26100       5.41493
2.2589       26200       5.39491
2.26752       26300       5.37506
2.27614       26400       5.35538
2.28476       26500       5.33587
2.29338       26600       5.31653
2.302       26700       5.29735
2.31063       26800       5.27832
2.31925       26900       5.25946
2.32787       27000       5.24076
2.33649       27100       5.22221
2.34511       27200       5.20382
2.35373       27300       5.18558
2.36236       27400       5.16748
2.37098       27500       5.14954
2.3796       27600       5.13174
2.38822       27700       5.11409
2.39684       27800       5.09658
2.40546       27900       5.07921
2.41409       28000       5.06197
2.42271       28100       5.04488
2.43133       28200       5.02792
2.43995       28300       5.0111
2.44857       28400       4.99441
2.4572       28500       4.97785
2.46582       28600       4.96142
2.47444       28700       4.94511
2.48306       28800       4.92894
2.49168       28900       4.91288
2.5003       29000       4.89696
2.50893       29100       4.88115
2.51755       29200       4.86546
2.52617       29300       4.8499
2.53479       29400       4.83445
2.54341       29500       4.81912
2.55203       29600       4.8039
2.56066       29700       4.7888
2.56928       29800       4.7738
2.5779       29900       4.75892
2.58652       30000       4.74416
2.59514       30100       4.72949
2.60376       30200       4.71494
2.61239       30300       4.70049
2.62101       30400       4.68615
2.62963       30500       4.67191
2.63825       30600       4.65778
2.64687       30700       4.64375
2.6555       30800       4.62981
2.66412       30900       4.61598
2.67274       31000       4.60224
2.68136       31100       4.58861
2.68998       31200       4.57506
2.6986       31300       4.56162
2.70723       31400       4.54827
2.71585       31500       4.53501
2.72447       31600       4.52184
2.73309       31700       4.50877
2.74171       31800       4.49578
2.75033       31900       4.48288
2.75896       32000       4.47008
2.76758       32100       4.45736
2.7762       32200       4.44472
2.78482       32300       4.43218
2.79344       32400       4.41971
2.80206       32500       4.40733
2.81069       32600       4.39504
2.81931       32700       4.38282
2.82793       32800       4.37069
2.83655       32900       4.35864
2.84517       33000       4.34666
2.8538       33100       4.33477
2.86242       33200       4.32295
2.87104       33300       4.31122
2.87966       33400       4.29955
2.88828       33500       4.28797
2.8969       33600       4.27645
2.90553       33700       4.26502
2.91415       33800       4.25365
2.92277       33900       4.24236
2.93139       34000       4.23114
2.94001       34100       4.21999
2.94863       34200       4.20892
2.95726       34300       4.19791
2.96588       34400       4.18697
2.9745       34500       4.1761
2.98312       34600       4.1653
2.99174       34700       4.15456
3.00036       34800       4.1439
3.00899       34900       4.13329
3.01761       35000       4.12276
3.02623       35100       4.11229
3.03485       35200       4.10188
3.04347       35300       4.09153
3.0521       35400       4.08125
3.06072       35500       4.07103
3.06934       35600       4.06088
3.07796       35700       4.05078
3.08658       35800       4.04074
3.0952       35900       4.03077
3.10383       36000       4.02085
3.11245       36100       4.01099
3.12107       36200       4.00119
3.12969       36300       3.99145
3.13831       36400       3.98177
3.14693       36500       3.97214
3.15556       36600       3.96257
3.16418       36700       3.95306
3.1728       36800       3.9436
3.18142       36900       3.93419
3.19004       37000       3.92484
3.19866       37100       3.91554
3.20729       37200       3.9063
3.21591       37300       3.89711
3.22453       37400       3.88797
3.23315       37500       3.87888
3.24177       37600       3.86985
3.2504       37700       3.86086
3.25902       37800       3.85193
3.26764       37900       3.84304
3.27626       38000       3.83421
3.28488       38100       3.82542
3.2935       38200       3.81669
3.30213       38300       3.808
3.31075       38400       3.79936
3.31937       38500       3.79077
3.32799       38600       3.78222
3.33661       38700       3.77372
3.34523       38800       3.76527
3.35386       38900       3.75687
3.36248       39000       3.7485
3.3711       39100       3.74019
3.37972       39200       3.73192
3.38834       39300       3.72369
3.39696       39400       3.71551
3.40559       39500       3.70737
3.41421       39600       3.69927
3.42283       39700       3.69122
3.43145       39800       3.68321
3.44007       39900       3.67524
3.4487       40000       3.66732
3.45732       40100       3.65943
3.46594       40200       3.65159
3.47456       40300       3.64379
3.48318       40400       3.63603
3.4918       40500       3.62831
3.50043       40600       3.62062
3.50905       40700       3.61298
3.51767       40800       3.60538
3.52629       40900       3.59782
3.53491       41000       3.59029
3.54353       41100       3.5828
3.55216       41200       3.57535
3.56078       41300       3.56794
3.5694       41400       3.56057
3.57802       41500       3.55323
3.58664       41600       3.54593
3.59526       41700       3.53867
3.60389       41800       3.53144
3.61251       41900       3.52425
3.62113       42000       3.5171
3.62975       42100       3.50998
3.63837       42200       3.50289
3.647       42300       3.49584
3.65562       42400       3.48882
3.66424       42500       3.48184
3.67286       42600       3.4749
3.68148       42700       3.46798
3.6901       42800       3.4611
3.69873       42900       3.45426
3.70735       43000       3.44744
3.71597       43100       3.44066
3.72459       43200       3.43391
3.73321       43300       3.4272
3.74183       43400       3.42051
3.75046       43500       3.41386
3.75908       43600       3.40724
3.7677       43700       3.40065
3.77632       43800       3.39409
3.78494       43900       3.38756
3.79356       44000       3.38107
3.80219       44100       3.3746
3.81081       44200       3.36817
3.81943       44300       3.36176
3.82805       44400       3.35538
3.83667       44500       3.34904
3.8453       44600       3.34272
3.85392       44700       3.33643
3.86254       44800       3.33017
3.87116       44900       3.32394
3.87978       45000       3.31774
3.8884       45100       3.31156
3.89703       45200       3.30542
3.90565       45300       3.2993
3.91427       45400       3.29321
3.92289       45500       3.28714
3.93151       45600       3.28111
3.94013       45700       3.2751
3.94876       45800       3.26912
3.95738       45900       3.26316
3.966       46000       3.25723
3.97462       46100       3.25133
3.98324       46200       3.24546
3.99186       46300       3.23961
4.00049       46400       3.23378
4.00911       46500       3.22798
4.01773       46600       3.22221
4.02635       46700       3.21646
4.03497       46800       3.21074
4.0436       46900       3.20504
4.05222       47000       3.19937
4.06084       47100       3.19372
4.06946       47200       3.18809
4.07808       47300       3.18249
4.0867       47400       3.17692
4.09533       47500       3.17136
4.10395       47600       3.16584
4.11257       47700       3.16033
4.12119       47800       3.15485
4.12981       47900       3.14939
4.13843       48000       3.14396
4.14706       48100       3.13854
4.15568       48200       3.13315
4.1643       48300       3.12779
4.17292       48400       3.12244
4.18154       48500       3.11712
4.19016       48600       3.11182
4.19879       48700       3.10654
4.20741       48800       3.10129
4.21603       48900       3.09605
4.22465       49000       3.09084
4.23327       49100       3.08565
4.2419       49200       3.08048
4.25052       49300       3.07533
4.25914       49400       3.07021
4.26776       49500       3.0651
4.27638       49600       3.06001
4.285       49700       3.05495
4.29363       49800       3.0499
4.30225       49900       3.04488
4.31087       50000       3.03988
4.31949       50100       3.03489
4.32811       50200       3.02993
4.33673       50300       3.02499
4.34536       50400       3.02006
4.35398       50500       3.01516
4.3626       50600       3.01027
4.37122       50700       3.00541
4.37984       50800       3.00056
4.38846       50900       2.99573
4.39709       51000       2.99093
4.40571       51100       2.98614
4.41433       51200       2.98137
4.42295       51300       2.97662
4.43157       51400       2.97188
4.4402       51500       2.96717
4.44882       51600       2.96247
4.45744       51700       2.95779
4.46606       51800       2.95313
4.47468       51900       2.94849
4.4833       52000       2.94387
4.49193       52100       2.93926
4.50055       52200       2.93467
4.50917       52300       2.9301
4.51779       52400       2.92555
4.52641       52500       2.92101
4.53503       52600       2.91649
4.54366       52700       2.91199
4.55228       52800       2.90751
4.5609       52900       2.90304
4.56952       53000       2.89859
4.57814       53100       2.89415
4.58676       53200       2.88974
4.59539       53300       2.88533
4.60401       53400       2.88095
4.61263       53500       2.87658
4.62125       53600       2.87223
4.62987       53700       2.86789
4.6385       53800       2.86357
4.64712       53900       2.85927
4.65574       54000       2.85498
4.66436       54100       2.85071
4.67298       54200       2.84645
4.6816       54300       2.84221
4.69023       54400       2.83799
4.69885       54500       2.83378
4.70747       54600       2.82958
4.71609       54700       2.8254
4.72471       54800       2.82124
4.73333       54900       2.81709
4.74196       55000       2.81295
4.75058       55100       2.80883
4.7592       55200       2.80473
4.76782       55300       2.80064
4.77644       55400       2.79656
4.78506       55500       2.7925
4.79369       55600       2.78845
4.80231       55700       2.78442
4.81093       55800       2.7804
4.81955       55900       2.7764
4.82817       56000       2.77241
4.8368       56100       2.76844
4.84542       56200       2.76448
4.85404       56300       2.76053
4.86266       56400       2.75659
4.87128       56500       2.75267
4.8799       56600       2.74877
4.88853       56700       2.74488
4.89715       56800       2.741
4.90577       56900       2.73713
4.91439       57000       2.73328
4.92301       57100       2.72944
4.93163       57200       2.72561
4.94026       57300       2.7218
4.94888       57400       2.718
4.9575       57500       2.71421
4.96612       57600       2.71044
4.97474       57700       2.70668
4.98336       57800       2.70293
4.99199       57900       2.6992
