; The collision integrals Q_{i,j}^{11} are exponential fit function obtained from 
; Transport properties of high-temperature Jupiter atmosphere components, D. Bruno, C. Catalfamo, M. Capitelli, G. Colonna, O. De Pascale et al., Phys. Plasmas 17, 112315 (2010), doi: 10.1063/1.3495980, Published by the American Institute of Physics
; 
; 
; Bruno et al. (2010) is computing the collision integrals Q11 by considering a polarization model for the potential function, using Eq. (13). In this particular case, the collision integrals assumed a closed form in Eq. (15) where the polarizability values are reported in table II
;
; 1 atomic unit of square distance = 2.80e-17 cm^2
; 1eV = 11604K

2.80e-17


;        E             T             Q11
;       (eV)         (K)         (a.u.)

0.0862174       1000       245.943
0.0948391       1100       234.498
0.103461       1200       224.514
0.112083       1300       215.707
0.120704       1400       207.86
0.129326       1500       200.812
0.137948       1600       194.435
0.14657       1700       188.63
0.155191       1800       183.315
0.163813       1900       178.426
0.172435       2000       173.908
0.181056       2100       169.717
0.189678       2200       165.815
0.1983       2300       162.17
0.206922       2400       158.756
0.215543       2500       155.548
0.224165       2600       152.528
0.232787       2700       149.676
0.241409       2800       146.979
0.25003       2900       144.423
0.258652       3000       141.995
0.267274       3100       139.686
0.275896       3200       137.486
0.284517       3300       135.387
0.293139       3400       133.381
0.301761       3500       131.462
0.310383       3600       129.623
0.319004       3700       127.86
0.327626       3800       126.166
0.336248       3900       124.538
0.34487       4000       122.972
0.353491       4100       121.463
0.362113       4200       120.008
0.370735       4300       118.604
0.379356       4400       117.249
0.387978       4500       115.939
0.3966       4600       114.672
0.405222       4700       113.445
0.413843       4800       112.257
0.422465       4900       111.106
0.431087       5000       109.989
0.439709       5100       108.906
0.44833       5200       107.853
0.456952       5300       106.831
0.465574       5400       105.837
0.474196       5500       104.871
0.482817       5600       103.93
0.491439       5700       103.014
0.500061       5800       102.122
0.508683       5900       101.253
0.517304       6000       100.406
0.525926       6100       99.5795
0.534548       6200       98.7732
0.543169       6300       97.9862
0.551791       6400       97.2176
0.560413       6500       96.4669
0.569035       6600       95.7333
0.577656       6700       95.0162
0.586278       6800       94.3149
0.5949       6900       93.629
0.603522       7000       92.9578
0.612143       7100       92.3009
0.620765       7200       91.6577
0.629387       7300       91.0277
0.638009       7400       90.4106
0.64663       7500       89.8058
0.655252       7600       89.213
0.663874       7700       88.6318
0.672496       7800       88.0618
0.681117       7900       87.5027
0.689739       8000       86.9541
0.698361       8100       86.4157
0.706983       8200       85.8871
0.715604       8300       85.3682
0.724226       8400       84.8585
0.732848       8500       84.3579
0.741469       8600       83.866
0.750091       8700       83.3826
0.758713       8800       82.9075
0.767335       8900       82.4404
0.775956       9000       81.9811
0.784578       9100       81.5294
0.7932       9200       81.0851
0.801822       9300       80.648
0.810443       9400       80.2179
0.819065       9500       79.7945
0.827687       9600       79.3779
0.836309       9700       78.9676
0.84493       9800       78.5637
0.853552       9900       78.1659
0.862174       10000       77.7741
0.870796       10100       77.3881
0.879417       10200       77.0078
0.888039       10300       76.6331
0.896661       10400       76.2638
0.905282       10500       75.8997
0.913904       10600       75.5409
0.922526       10700       75.1871
0.931148       10800       74.8382
0.939769       10900       74.4941
0.948391       11000       74.1547
0.957013       11100       73.8199
0.965635       11200       73.4896
0.974256       11300       73.1637
0.982878       11400       72.8421
0.9915       11500       72.5247
1.00012       11600       72.2114
1.00874       11700       71.9022
1.01737       11800       71.5969
1.02599       11900       71.2954
1.03461       12000       70.9977
1.04323       12100       70.7037
1.05185       12200       70.4134
1.06047       12300       70.1265
1.0691       12400       69.8432
1.07772       12500       69.5633
1.08634       12600       69.2867
1.09496       12700       69.0134
1.10358       12800       68.7432
1.1122       12900       68.4763
1.12083       13000       68.2124
1.12945       13100       67.9515
1.13807       13200       67.6937
1.14669       13300       67.4387
1.15531       13400       67.1866
1.16393       13500       66.9373
1.17256       13600       66.6907
1.18118       13700       66.4469
1.1898       13800       66.2057
1.19842       13900       65.9671
1.20704       14000       65.7311
1.21567       14100       65.4976
1.22429       14200       65.2666
1.23291       14300       65.038
1.24153       14400       64.8117
1.25015       14500       64.5879
1.25877       14600       64.3663
1.2674       14700       64.147
1.27602       14800       63.9299
1.28464       14900       63.715
1.29326       15000       63.5023
1.30188       15100       63.2917
1.3105       15200       63.0831
1.31913       15300       62.8766
1.32775       15400       62.6722
1.33637       15500       62.4697
1.34499       15600       62.2691
1.35361       15700       62.0705
1.36223       15800       61.8737
1.37086       15900       61.6789
1.37948       16000       61.4858
1.3881       16100       61.2946
1.39672       16200       61.1051
1.40534       16300       60.9174
1.41397       16400       60.7314
1.42259       16500       60.5471
1.43121       16600       60.3644
1.43983       16700       60.1834
1.44845       16800       60.004
1.45707       16900       59.8262
1.4657       17000       59.65
1.47432       17100       59.4753
1.48294       17200       59.3022
1.49156       17300       59.1306
1.50018       17400       58.9604
1.5088       17500       58.7917
1.51743       17600       58.6244
1.52605       17700       58.4586
1.53467       17800       58.2942
1.54329       17900       58.1311
1.55191       18000       57.9694
1.56053       18100       57.809
1.56916       18200       57.65
1.57778       18300       57.4923
1.5864       18400       57.3358
1.59502       18500       57.1807
1.60364       18600       57.0267
1.61227       18700       56.8741
1.62089       18800       56.7226
1.62951       18900       56.5723
1.63813       19000       56.4233
1.64675       19100       56.2754
1.65537       19200       56.1286
1.664       19300       55.983
1.67262       19400       55.8385
1.68124       19500       55.6952
1.68986       19600       55.5529
1.69848       19700       55.4117
1.7071       19800       55.2716
1.71573       19900       55.1326
1.72435       20000       54.9946
1.73297       20100       54.8576
1.74159       20200       54.7217
1.75021       20300       54.5867
1.75883       20400       54.4528
1.76746       20500       54.3198
1.77608       20600       54.1878
1.7847       20700       54.0567
1.79332       20800       53.9266
1.80194       20900       53.7975
1.81056       21000       53.6692
1.81919       21100       53.5419
1.82781       21200       53.4155
1.83643       21300       53.2899
1.84505       21400       53.1653
1.85367       21500       53.0415
1.8623       21600       52.9186
1.87092       21700       52.7965
1.87954       21800       52.6753
1.88816       21900       52.5549
1.89678       22000       52.4353
1.9054       22100       52.3165
1.91403       22200       52.1986
1.92265       22300       52.0814
1.93127       22400       51.965
1.93989       22500       51.8494
1.94851       22600       51.7346
1.95713       22700       51.6205
1.96576       22800       51.5072
1.97438       22900       51.3946
1.983       23000       51.2827
1.99162       23100       51.1716
2.00024       23200       51.0612
2.00886       23300       50.9515
2.01749       23400       50.8425
2.02611       23500       50.7342
2.03473       23600       50.6266
2.04335       23700       50.5197
2.05197       23800       50.4135
2.0606       23900       50.3079
2.06922       24000       50.203
2.07784       24100       50.0987
2.08646       24200       49.9951
2.09508       24300       49.8921
2.1037       24400       49.7898
2.11233       24500       49.688
2.12095       24600       49.587
2.12957       24700       49.4865
2.13819       24800       49.3866
2.14681       24900       49.2873
2.15543       25000       49.1887
2.16406       25100       49.0906
2.17268       25200       48.9931
2.1813       25300       48.8962
2.18992       25400       48.7998
2.19854       25500       48.704
2.20716       25600       48.6088
2.21579       25700       48.5141
2.22441       25800       48.42
2.23303       25900       48.3265
2.24165       26000       48.2334
2.25027       26100       48.141
2.2589       26200       48.049
2.26752       26300       47.9576
2.27614       26400       47.8666
2.28476       26500       47.7762
2.29338       26600       47.6864
2.302       26700       47.597
2.31063       26800       47.5081
2.31925       26900       47.4197
2.32787       27000       47.3318
2.33649       27100       47.2444
2.34511       27200       47.1575
2.35373       27300       47.071
2.36236       27400       46.9851
2.37098       27500       46.8995
2.3796       27600       46.8145
2.38822       27700       46.7299
2.39684       27800       46.6458
2.40546       27900       46.5621
2.41409       28000       46.4789
2.42271       28100       46.3961
2.43133       28200       46.3138
2.43995       28300       46.2319
2.44857       28400       46.1504
2.4572       28500       46.0694
2.46582       28600       45.9888
2.47444       28700       45.9086
2.48306       28800       45.8288
2.49168       28900       45.7495
2.5003       29000       45.6705
2.50893       29100       45.592
2.51755       29200       45.5138
2.52617       29300       45.4361
2.53479       29400       45.3588
2.54341       29500       45.2818
2.55203       29600       45.2053
2.56066       29700       45.1291
2.56928       29800       45.0533
2.5779       29900       44.9779
2.58652       30000       44.9029
2.59514       30100       44.8282
2.60376       30200       44.754
2.61239       30300       44.6801
2.62101       30400       44.6065
2.62963       30500       44.5333
2.63825       30600       44.4605
2.64687       30700       44.388
2.6555       30800       44.3159
2.66412       30900       44.2441
2.67274       31000       44.1727
2.68136       31100       44.1016
2.68998       31200       44.0309
2.6986       31300       43.9605
2.70723       31400       43.8905
2.71585       31500       43.8207
2.72447       31600       43.7513
2.73309       31700       43.6823
2.74171       31800       43.6135
2.75033       31900       43.5451
2.75896       32000       43.477
2.76758       32100       43.4093
2.7762       32200       43.3418
2.78482       32300       43.2747
2.79344       32400       43.2078
2.80206       32500       43.1413
2.81069       32600       43.0751
2.81931       32700       43.0092
2.82793       32800       42.9436
2.83655       32900       42.8782
2.84517       33000       42.8132
2.8538       33100       42.7485
2.86242       33200       42.6841
2.87104       33300       42.6199
2.87966       33400       42.5561
2.88828       33500       42.4925
2.8969       33600       42.4292
2.90553       33700       42.3663
2.91415       33800       42.3035
2.92277       33900       42.2411
2.93139       34000       42.1789
2.94001       34100       42.117
2.94863       34200       42.0554
2.95726       34300       41.9941
2.96588       34400       41.933
2.9745       34500       41.8722
2.98312       34600       41.8116
2.99174       34700       41.7513
3.00036       34800       41.6913
3.00899       34900       41.6315
3.01761       35000       41.572
3.02623       35100       41.5127
3.03485       35200       41.4537
3.04347       35300       41.395
3.0521       35400       41.3365
3.06072       35500       41.2782
3.06934       35600       41.2202
3.07796       35700       41.1624
3.08658       35800       41.1049
3.0952       35900       41.0476
3.10383       36000       40.9905
3.11245       36100       40.9337
3.12107       36200       40.8772
3.12969       36300       40.8208
3.13831       36400       40.7647
3.14693       36500       40.7088
3.15556       36600       40.6532
3.16418       36700       40.5977
3.1728       36800       40.5426
3.18142       36900       40.4876
3.19004       37000       40.4328
3.19866       37100       40.3783
3.20729       37200       40.324
3.21591       37300       40.2699
3.22453       37400       40.216
3.23315       37500       40.1624
3.24177       37600       40.1089
3.2504       37700       40.0557
3.25902       37800       40.0027
3.26764       37900       39.9499
3.27626       38000       39.8973
3.28488       38100       39.8449
3.2935       38200       39.7927
3.30213       38300       39.7407
3.31075       38400       39.6889
3.31937       38500       39.6374
3.32799       38600       39.586
3.33661       38700       39.5348
3.34523       38800       39.4838
3.35386       38900       39.433
3.36248       39000       39.3824
3.3711       39100       39.3321
3.37972       39200       39.2819
3.38834       39300       39.2318
3.39696       39400       39.182
3.40559       39500       39.1324
3.41421       39600       39.083
3.42283       39700       39.0337
3.43145       39800       38.9846
3.44007       39900       38.9357
3.4487       40000       38.887
3.45732       40100       38.8385
3.46594       40200       38.7902
3.47456       40300       38.742
3.48318       40400       38.6941
3.4918       40500       38.6463
3.50043       40600       38.5986
3.50905       40700       38.5512
3.51767       40800       38.5039
3.52629       40900       38.4568
3.53491       41000       38.4099
3.54353       41100       38.3631
3.55216       41200       38.3165
3.56078       41300       38.2701
3.5694       41400       38.2239
3.57802       41500       38.1778
3.58664       41600       38.1319
3.59526       41700       38.0861
3.60389       41800       38.0406
3.61251       41900       37.9951
3.62113       42000       37.9499
3.62975       42100       37.9048
3.63837       42200       37.8598
3.647       42300       37.8151
3.65562       42400       37.7704
3.66424       42500       37.726
3.67286       42600       37.6817
3.68148       42700       37.6375
3.6901       42800       37.5935
3.69873       42900       37.5497
3.70735       43000       37.506
3.71597       43100       37.4625
3.72459       43200       37.4191
3.73321       43300       37.3758
3.74183       43400       37.3328
3.75046       43500       37.2898
3.75908       43600       37.247
3.7677       43700       37.2044
3.77632       43800       37.1619
3.78494       43900       37.1196
3.79356       44000       37.0773
3.80219       44100       37.0353
3.81081       44200       36.9934
3.81943       44300       36.9516
3.82805       44400       36.91
3.83667       44500       36.8685
3.8453       44600       36.8271
3.85392       44700       36.7859
3.86254       44800       36.7448
3.87116       44900       36.7039
3.87978       45000       36.6631
3.8884       45100       36.6224
3.89703       45200       36.5819
3.90565       45300       36.5415
3.91427       45400       36.5012
3.92289       45500       36.4611
3.93151       45600       36.4211
3.94013       45700       36.3812
3.94876       45800       36.3414
3.95738       45900       36.3018
3.966       46000       36.2624
3.97462       46100       36.223
3.98324       46200       36.1838
3.99186       46300       36.1447
4.00049       46400       36.1057
4.00911       46500       36.0669
4.01773       46600       36.0282
4.02635       46700       35.9896
4.03497       46800       35.9511
4.0436       46900       35.9127
4.05222       47000       35.8745
4.06084       47100       35.8364
4.06946       47200       35.7984
4.07808       47300       35.7606
4.0867       47400       35.7228
4.09533       47500       35.6852
4.10395       47600       35.6477
4.11257       47700       35.6103
4.12119       47800       35.573
4.12981       47900       35.5359
4.13843       48000       35.4989
4.14706       48100       35.4619
4.15568       48200       35.4251
4.1643       48300       35.3884
4.17292       48400       35.3519
4.18154       48500       35.3154
4.19016       48600       35.279
4.19879       48700       35.2428
4.20741       48800       35.2067
4.21603       48900       35.1707
4.22465       49000       35.1348
4.23327       49100       35.099
4.2419       49200       35.0633
4.25052       49300       35.0277
4.25914       49400       34.9922
4.26776       49500       34.9569
4.27638       49600       34.9216
4.285       49700       34.8865
4.29363       49800       34.8514
4.30225       49900       34.8165
4.31087       50000       34.7816
4.31949       50100       34.7469
4.32811       50200       34.7123
4.33673       50300       34.6778
4.34536       50400       34.6433
4.35398       50500       34.609
4.3626       50600       34.5748
4.37122       50700       34.5407
4.37984       50800       34.5067
4.38846       50900       34.4728
4.39709       51000       34.4389
4.40571       51100       34.4052
4.41433       51200       34.3716
4.42295       51300       34.3381
4.43157       51400       34.3047
4.4402       51500       34.2714
4.44882       51600       34.2381
4.45744       51700       34.205
4.46606       51800       34.172
4.47468       51900       34.139
4.4833       52000       34.1062
4.49193       52100       34.0735
4.50055       52200       34.0408
4.50917       52300       34.0082
4.51779       52400       33.9758
4.52641       52500       33.9434
4.53503       52600       33.9111
4.54366       52700       33.8789
4.55228       52800       33.8468
4.5609       52900       33.8148
4.56952       53000       33.7829
4.57814       53100       33.7511
4.58676       53200       33.7193
4.59539       53300       33.6877
4.60401       53400       33.6561
4.61263       53500       33.6247
4.62125       53600       33.5933
4.62987       53700       33.562
4.6385       53800       33.5308
4.64712       53900       33.4997
4.65574       54000       33.4686
4.66436       54100       33.4377
4.67298       54200       33.4068
4.6816       54300       33.3761
4.69023       54400       33.3454
4.69885       54500       33.3148
4.70747       54600       33.2842
4.71609       54700       33.2538
4.72471       54800       33.2234
4.73333       54900       33.1932
4.74196       55000       33.163
4.75058       55100       33.1329
4.7592       55200       33.1029
4.76782       55300       33.0729
4.77644       55400       33.043
4.78506       55500       33.0133
4.79369       55600       32.9836
4.80231       55700       32.9539
4.81093       55800       32.9244
4.81955       55900       32.8949
4.82817       56000       32.8656
4.8368       56100       32.8362
4.84542       56200       32.807
4.85404       56300       32.7779
4.86266       56400       32.7488
4.87128       56500       32.7198
4.8799       56600       32.6909
4.88853       56700       32.6621
4.89715       56800       32.6333
4.90577       56900       32.6046
4.91439       57000       32.576
4.92301       57100       32.5474
4.93163       57200       32.519
4.94026       57300       32.4906
4.94888       57400       32.4623
4.9575       57500       32.434
4.96612       57600       32.4059
4.97474       57700       32.3778
4.98336       57800       32.3498
