; The collision integrals Q_{i,j}^{11} are exponential fit function obtained from 
; Transport properties of high-temperature Jupiter atmosphere components, D. Bruno, C. Catalfamo, M. Capitelli, G. Colonna, O. De Pascale et al., Phys. Plasmas 17, 112315 (2010), doi: 10.1063/1.3495980, Published by the American Institute of Physics
; 
; 
; To obtain these collision integrals, the original data (transport cross section Q^l_{i,j} or elastic collision differential cross section) are obtained from:
;
; 1) R. D. Rundel, D. E. Nitz, K. A. Smith, M. W. Geis, and R. F. Stebbings, Phys. Rev. A 19, 33 1979.
;
; 1 atomic unit of square distance = 2.80e-17 cm^2
; 1eV = 11604K

2.80e-17


;        E             T             Q11
;       (eV)         (K)         (a.u.)

0.0862174       1000       247.433
0.0948391       1100       244.069
0.103461       1200       241.023
0.112083       1300       238.243
0.120704       1400       235.686
0.129326       1500       233.321
0.137948       1600       231.122
0.14657       1700       229.067
0.155191       1800       227.14
0.163813       1900       225.324
0.172435       2000       223.61
0.181056       2100       221.985
0.189678       2200       220.441
0.1983       2300       218.971
0.206922       2400       217.568
0.215543       2500       216.227
0.224165       2600       214.941
0.232787       2700       213.708
0.241409       2800       212.522
0.25003       2900       211.381
0.258652       3000       210.281
0.267274       3100       209.219
0.275896       3200       208.194
0.284517       3300       207.202
0.293139       3400       206.242
0.301761       3500       205.311
0.310383       3600       204.409
0.319004       3700       203.534
0.327626       3800       202.684
0.336248       3900       201.857
0.34487       4000       201.053
0.353491       4100       200.271
0.362113       4200       199.51
0.370735       4300       198.768
0.379356       4400       198.044
0.387978       4500       197.339
0.3966       4600       196.651
0.405222       4700       195.979
0.413843       4800       195.323
0.422465       4900       194.682
0.431087       5000       194.056
0.439709       5100       193.443
0.44833       5200       192.844
0.456952       5300       192.258
0.465574       5400       191.685
0.474196       5500       191.123
0.482817       5600       190.574
0.491439       5700       190.035
0.500061       5800       189.507
0.508683       5900       188.99
0.517304       6000       188.483
0.525926       6100       187.986
0.534548       6200       187.498
0.543169       6300       187.02
0.551791       6400       186.55
0.560413       6500       186.089
0.569035       6600       185.637
0.577656       6700       185.192
0.586278       6800       184.756
0.5949       6900       184.327
0.603522       7000       183.905
0.612143       7100       183.491
0.620765       7200       183.084
0.629387       7300       182.684
0.638009       7400       182.29
0.64663       7500       181.903
0.655252       7600       181.522
0.663874       7700       181.147
0.672496       7800       180.778
0.681117       7900       180.415
0.689739       8000       180.057
0.698361       8100       179.705
0.706983       8200       179.358
0.715604       8300       179.017
0.724226       8400       178.68
0.732848       8500       178.349
0.741469       8600       178.022
0.750091       8700       177.7
0.758713       8800       177.383
0.767335       8900       177.07
0.775956       9000       176.762
0.784578       9100       176.457
0.7932       9200       176.157
0.801822       9300       175.861
0.810443       9400       175.569
0.819065       9500       175.281
0.827687       9600       174.996
0.836309       9700       174.716
0.84493       9800       174.438
0.853552       9900       174.165
0.862174       10000       173.895
0.870796       10100       173.628
0.879417       10200       173.364
0.888039       10300       173.104
0.896661       10400       172.847
0.905282       10500       172.593
0.913904       10600       172.342
0.922526       10700       172.094
0.931148       10800       171.849
0.939769       10900       171.607
0.948391       11000       171.367
0.957013       11100       171.13
0.965635       11200       170.896
0.974256       11300       170.665
0.982878       11400       170.436
0.9915       11500       170.209
1.00012       11600       169.985
1.00874       11700       169.764
1.01737       11800       169.544
1.02599       11900       169.327
1.03461       12000       169.113
1.04323       12100       168.9
1.05185       12200       168.69
1.06047       12300       168.482
1.0691       12400       168.276
1.07772       12500       168.072
1.08634       12600       167.87
1.09496       12700       167.67
1.10358       12800       167.472
1.1122       12900       167.276
1.12083       13000       167.082
1.12945       13100       166.89
1.13807       13200       166.699
1.14669       13300       166.51
1.15531       13400       166.323
1.16393       13500       166.138
1.17256       13600       165.955
1.18118       13700       165.773
1.1898       13800       165.592
1.19842       13900       165.414
1.20704       14000       165.237
1.21567       14100       165.061
1.22429       14200       164.887
1.23291       14300       164.715
1.24153       14400       164.544
1.25015       14500       164.374
1.25877       14600       164.206
1.2674       14700       164.039
1.27602       14800       163.874
1.28464       14900       163.71
1.29326       15000       163.547
1.30188       15100       163.386
1.3105       15200       163.226
1.31913       15300       163.067
1.32775       15400       162.91
1.33637       15500       162.753
1.34499       15600       162.599
1.35361       15700       162.445
1.36223       15800       162.292
1.37086       15900       162.141
1.37948       16000       161.99
1.3881       16100       161.841
1.39672       16200       161.693
1.40534       16300       161.546
1.41397       16400       161.401
1.42259       16500       161.256
1.43121       16600       161.112
1.43983       16700       160.969
1.44845       16800       160.828
1.45707       16900       160.687
1.4657       17000       160.548
1.47432       17100       160.409
1.48294       17200       160.271
1.49156       17300       160.135
1.50018       17400       159.999
1.5088       17500       159.864
1.51743       17600       159.73
1.52605       17700       159.597
1.53467       17800       159.465
1.54329       17900       159.334
1.55191       18000       159.204
1.56053       18100       159.074
1.56916       18200       158.946
1.57778       18300       158.818
1.5864       18400       158.691
1.59502       18500       158.565
1.60364       18600       158.44
1.61227       18700       158.315
1.62089       18800       158.192
1.62951       18900       158.069
1.63813       19000       157.947
1.64675       19100       157.825
1.65537       19200       157.705
1.664       19300       157.585
1.67262       19400       157.466
1.68124       19500       157.347
1.68986       19600       157.23
1.69848       19700       157.113
1.7071       19800       156.996
1.71573       19900       156.881
1.72435       20000       156.766
1.73297       20100       156.652
1.74159       20200       156.538
1.75021       20300       156.425
1.75883       20400       156.313
1.76746       20500       156.201
1.77608       20600       156.09
1.7847       20700       155.98
1.79332       20800       155.87
1.80194       20900       155.761
1.81056       21000       155.653
1.81919       21100       155.545
1.82781       21200       155.438
1.83643       21300       155.331
1.84505       21400       155.225
1.85367       21500       155.119
1.8623       21600       155.015
1.87092       21700       154.91
1.87954       21800       154.806
1.88816       21900       154.703
1.89678       22000       154.6
1.9054       22100       154.498
1.91403       22200       154.397
1.92265       22300       154.296
1.93127       22400       154.195
1.93989       22500       154.095
1.94851       22600       153.996
1.95713       22700       153.897
1.96576       22800       153.798
1.97438       22900       153.7
1.983       23000       153.603
1.99162       23100       153.506
2.00024       23200       153.409
2.00886       23300       153.313
2.01749       23400       153.218
2.02611       23500       153.123
2.03473       23600       153.028
2.04335       23700       152.934
2.05197       23800       152.84
2.0606       23900       152.747
2.06922       24000       152.654
2.07784       24100       152.562
2.08646       24200       152.47
2.09508       24300       152.378
2.1037       24400       152.287
2.11233       24500       152.197
2.12095       24600       152.107
2.12957       24700       152.017
2.13819       24800       151.928
2.14681       24900       151.839
2.15543       25000       151.75
2.16406       25100       151.662
2.17268       25200       151.574
2.1813       25300       151.487
2.18992       25400       151.4
2.19854       25500       151.314
2.20716       25600       151.228
2.21579       25700       151.142
2.22441       25800       151.057
2.23303       25900       150.972
2.24165       26000       150.887
2.25027       26100       150.803
2.2589       26200       150.719
2.26752       26300       150.636
2.27614       26400       150.553
2.28476       26500       150.47
2.29338       26600       150.388
2.302       26700       150.305
2.31063       26800       150.224
2.31925       26900       150.142
2.32787       27000       150.062
2.33649       27100       149.981
2.34511       27200       149.901
2.35373       27300       149.821
2.36236       27400       149.741
2.37098       27500       149.662
2.3796       27600       149.583
2.38822       27700       149.504
2.39684       27800       149.426
2.40546       27900       149.348
2.41409       28000       149.27
2.42271       28100       149.193
2.43133       28200       149.116
2.43995       28300       149.039
2.44857       28400       148.963
2.4572       28500       148.886
2.46582       28600       148.811
2.47444       28700       148.735
2.48306       28800       148.66
2.49168       28900       148.585
2.5003       29000       148.51
2.50893       29100       148.436
2.51755       29200       148.362
2.52617       29300       148.288
2.53479       29400       148.215
2.54341       29500       148.142
2.55203       29600       148.069
2.56066       29700       147.996
2.56928       29800       147.924
2.5779       29900       147.852
2.58652       30000       147.78
2.59514       30100       147.708
2.60376       30200       147.637
2.61239       30300       147.566
2.62101       30400       147.495
2.62963       30500       147.425
2.63825       30600       147.355
2.64687       30700       147.285
2.6555       30800       147.215
2.66412       30900       147.146
2.67274       31000       147.077
2.68136       31100       147.008
2.68998       31200       146.939
2.6986       31300       146.871
2.70723       31400       146.802
2.71585       31500       146.735
2.72447       31600       146.667
2.73309       31700       146.599
2.74171       31800       146.532
2.75033       31900       146.465
2.75896       32000       146.399
2.76758       32100       146.332
2.7762       32200       146.266
2.78482       32300       146.2
2.79344       32400       146.134
2.80206       32500       146.068
2.81069       32600       146.003
2.81931       32700       145.938
2.82793       32800       145.873
2.83655       32900       145.808
2.84517       33000       145.744
2.8538       33100       145.68
2.86242       33200       145.616
2.87104       33300       145.552
2.87966       33400       145.488
2.88828       33500       145.425
2.8969       33600       145.362
2.90553       33700       145.299
2.91415       33800       145.236
2.92277       33900       145.174
2.93139       34000       145.111
2.94001       34100       145.049
2.94863       34200       144.987
2.95726       34300       144.926
2.96588       34400       144.864
2.9745       34500       144.803
2.98312       34600       144.742
2.99174       34700       144.681
3.00036       34800       144.62
3.00899       34900       144.56
3.01761       35000       144.5
3.02623       35100       144.439
3.03485       35200       144.379
3.04347       35300       144.32
3.0521       35400       144.26
3.06072       35500       144.201
3.06934       35600       144.142
3.07796       35700       144.083
3.08658       35800       144.024
3.0952       35900       143.965
3.10383       36000       143.907
3.11245       36100       143.849
3.12107       36200       143.791
3.12969       36300       143.733
3.13831       36400       143.675
3.14693       36500       143.617
3.15556       36600       143.56
3.16418       36700       143.503
3.1728       36800       143.446
3.18142       36900       143.389
3.19004       37000       143.332
3.19866       37100       143.276
3.20729       37200       143.22
3.21591       37300       143.164
3.22453       37400       143.108
3.23315       37500       143.052
3.24177       37600       142.996
3.2504       37700       142.941
3.25902       37800       142.885
3.26764       37900       142.83
3.27626       38000       142.775
3.28488       38100       142.72
3.2935       38200       142.666
3.30213       38300       142.611
3.31075       38400       142.557
3.31937       38500       142.503
3.32799       38600       142.449
3.33661       38700       142.395
3.34523       38800       142.341
3.35386       38900       142.287
3.36248       39000       142.234
3.3711       39100       142.181
3.37972       39200       142.128
3.38834       39300       142.075
3.39696       39400       142.022
3.40559       39500       141.969
3.41421       39600       141.917
3.42283       39700       141.864
3.43145       39800       141.812
3.44007       39900       141.76
3.4487       40000       141.708
3.45732       40100       141.656
3.46594       40200       141.605
3.47456       40300       141.553
3.48318       40400       141.502
3.4918       40500       141.451
3.50043       40600       141.4
3.50905       40700       141.349
3.51767       40800       141.298
3.52629       40900       141.247
3.53491       41000       141.197
3.54353       41100       141.146
3.55216       41200       141.096
3.56078       41300       141.046
3.5694       41400       140.996
3.57802       41500       140.946
3.58664       41600       140.897
3.59526       41700       140.847
3.60389       41800       140.798
3.61251       41900       140.748
3.62113       42000       140.699
3.62975       42100       140.65
3.63837       42200       140.601
3.647       42300       140.552
3.65562       42400       140.504
3.66424       42500       140.455
3.67286       42600       140.407
3.68148       42700       140.359
3.6901       42800       140.31
3.69873       42900       140.262
3.70735       43000       140.214
3.71597       43100       140.167
3.72459       43200       140.119
3.73321       43300       140.072
3.74183       43400       140.024
3.75046       43500       139.977
3.75908       43600       139.93
3.7677       43700       139.883
3.77632       43800       139.836
3.78494       43900       139.789
3.79356       44000       139.742
3.80219       44100       139.696
3.81081       44200       139.649
3.81943       44300       139.603
3.82805       44400       139.557
3.83667       44500       139.51
3.8453       44600       139.464
3.85392       44700       139.419
3.86254       44800       139.373
3.87116       44900       139.327
3.87978       45000       139.282
3.8884       45100       139.236
3.89703       45200       139.191
3.90565       45300       139.146
3.91427       45400       139.101
3.92289       45500       139.056
3.93151       45600       139.011
3.94013       45700       138.966
3.94876       45800       138.921
3.95738       45900       138.877
3.966       46000       138.832
3.97462       46100       138.788
3.98324       46200       138.744
3.99186       46300       138.7
4.00049       46400       138.656
4.00911       46500       138.612
4.01773       46600       138.568
4.02635       46700       138.524
4.03497       46800       138.481
4.0436       46900       138.437
4.05222       47000       138.394
4.06084       47100       138.35
4.06946       47200       138.307
4.07808       47300       138.264
4.0867       47400       138.221
4.09533       47500       138.178
4.10395       47600       138.135
4.11257       47700       138.093
4.12119       47800       138.05
4.12981       47900       138.008
4.13843       48000       137.965
4.14706       48100       137.923
4.15568       48200       137.881
4.1643       48300       137.839
4.17292       48400       137.797
4.18154       48500       137.755
4.19016       48600       137.713
4.19879       48700       137.671
4.20741       48800       137.63
4.21603       48900       137.588
4.22465       49000       137.547
4.23327       49100       137.505
4.2419       49200       137.464
4.25052       49300       137.423
4.25914       49400       137.382
4.26776       49500       137.341
4.27638       49600       137.3
4.285       49700       137.259
4.29363       49800       137.219
4.30225       49900       137.178
4.31087       50000       137.137
4.31949       50100       137.097
4.32811       50200       137.057
4.33673       50300       137.016
4.34536       50400       136.976
4.35398       50500       136.936
4.3626       50600       136.896
4.37122       50700       136.856
4.37984       50800       136.816
4.38846       50900       136.777
4.39709       51000       136.737
4.40571       51100       136.697
4.41433       51200       136.658
4.42295       51300       136.619
4.43157       51400       136.579
4.4402       51500       136.54
4.44882       51600       136.501
4.45744       51700       136.462
4.46606       51800       136.423
4.47468       51900       136.384
4.4833       52000       136.345
4.49193       52100       136.307
4.50055       52200       136.268
4.50917       52300       136.229
4.51779       52400       136.191
4.52641       52500       136.152
4.53503       52600       136.114
4.54366       52700       136.076
4.55228       52800       136.038
4.5609       52900       136
4.56952       53000       135.962
4.57814       53100       135.924
4.58676       53200       135.886
4.59539       53300       135.848
4.60401       53400       135.811
4.61263       53500       135.773
4.62125       53600       135.735
4.62987       53700       135.698
4.6385       53800       135.661
4.64712       53900       135.623
4.65574       54000       135.586
4.66436       54100       135.549
4.67298       54200       135.512
4.6816       54300       135.475
4.69023       54400       135.438
4.69885       54500       135.401
4.70747       54600       135.364
4.71609       54700       135.328
4.72471       54800       135.291
4.73333       54900       135.254
4.74196       55000       135.218
4.75058       55100       135.182
4.7592       55200       135.145
4.76782       55300       135.109
4.77644       55400       135.073
4.78506       55500       135.037
4.79369       55600       135.001
4.80231       55700       134.965
4.81093       55800       134.929
4.81955       55900       134.893
4.82817       56000       134.857
4.8368       56100       134.822
4.84542       56200       134.786
4.85404       56300       134.75
4.86266       56400       134.715
4.87128       56500       134.68
4.8799       56600       134.644
4.88853       56700       134.609
4.89715       56800       134.574
4.90577       56900       134.539
4.91439       57000       134.503
4.92301       57100       134.469
4.93163       57200       134.434
4.94026       57300       134.399
4.94888       57400       134.364
4.9575       57500       134.329
4.96612       57600       134.295
4.97474       57700       134.26
4.98336       57800       134.225
