; The collision integrals Q_{i,j}^{11} are exponential fit function obtained from 
; Transport properties of high-temperature Jupiter atmosphere components, D. Bruno, C. Catalfamo, M. Capitelli, G. Colonna, O. De Pascale et al., Phys. Plasmas 17, 112315 (2010), doi: 10.1063/1.3495980, Published by the American Institute of Physics
; 
; 
; To obtain these collision integrals, the original data (transport cross section Q^l_{i,j} or elastic collision differential cross section) are obtained from:
;
; 1) J. J. Hurly and J. B. Mehl, J. Res. Natl. Inst. Stand. Technol. 112, 75 2007.
;
; 1 atomic unit of square distance = 2.80e-17 cm^2
; 1eV = 11604K

2.80e-17


;        E             T             Q11
;       (eV)         (K)         (a.u.)

0.0862174       1000       34.5301
0.0948391       1100       33.7366
0.103461       1200       33.0178
0.112083       1300       32.3611
0.120704       1400       31.757
0.129326       1500       31.1978
0.137948       1600       30.6777
0.14657       1700       30.1915
0.155191       1800       29.7354
0.163813       1900       29.306
0.172435       2000       28.9004
0.181056       2100       28.5162
0.189678       2200       28.1514
0.1983       2300       27.8042
0.206922       2400       27.473
0.215543       2500       27.1565
0.224165       2600       26.8535
0.232787       2700       26.563
0.241409       2800       26.284
0.25003       2900       26.0156
0.258652       3000       25.7572
0.267274       3100       25.508
0.275896       3200       25.2675
0.284517       3300       25.0351
0.293139       3400       24.8103
0.301761       3500       24.5926
0.310383       3600       24.3817
0.319004       3700       24.1771
0.327626       3800       23.9785
0.336248       3900       23.7856
0.34487       4000       23.5981
0.353491       4100       23.4157
0.362113       4200       23.2382
0.370735       4300       23.0652
0.379356       4400       22.8967
0.387978       4500       22.7324
0.3966       4600       22.5721
0.405222       4700       22.4156
0.413843       4800       22.2627
0.422465       4900       22.1134
0.431087       5000       21.9674
0.439709       5100       21.8246
0.44833       5200       21.685
0.456952       5300       21.5483
0.465574       5400       21.4144
0.474196       5500       21.2833
0.482817       5600       21.1549
0.491439       5700       21.029
0.500061       5800       20.9055
0.508683       5900       20.7844
0.517304       6000       20.6656
0.525926       6100       20.549
0.534548       6200       20.4346
0.543169       6300       20.3222
0.551791       6400       20.2118
0.560413       6500       20.1033
0.569035       6600       19.9967
0.577656       6700       19.8919
0.586278       6800       19.7888
0.5949       6900       19.6875
0.603522       7000       19.5878
0.612143       7100       19.4897
0.620765       7200       19.3932
0.629387       7300       19.2981
0.638009       7400       19.2046
0.64663       7500       19.1125
0.655252       7600       19.0217
0.663874       7700       18.9323
0.672496       7800       18.8442
0.681117       7900       18.7574
0.689739       8000       18.6719
0.698361       8100       18.5875
0.706983       8200       18.5044
0.715604       8300       18.4224
0.724226       8400       18.3415
0.732848       8500       18.2617
0.741469       8600       18.183
0.750091       8700       18.1053
0.758713       8800       18.0287
0.767335       8900       17.953
0.775956       9000       17.8783
0.784578       9100       17.8046
0.7932       9200       17.7317
0.801822       9300       17.6598
0.810443       9400       17.5888
0.819065       9500       17.5186
0.827687       9600       17.4493
0.836309       9700       17.3808
0.84493       9800       17.3132
0.853552       9900       17.2463
0.862174       10000       17.1802
0.870796       10100       17.1148
0.879417       10200       17.0502
0.888039       10300       16.9864
0.896661       10400       16.9232
0.905282       10500       16.8608
0.913904       10600       16.799
0.922526       10700       16.7379
0.931148       10800       16.6775
0.939769       10900       16.6177
0.948391       11000       16.5586
0.957013       11100       16.5
0.965635       11200       16.4421
0.974256       11300       16.3848
0.982878       11400       16.3281
0.9915       11500       16.2719
1.00012       11600       16.2164
1.00874       11700       16.1613
1.01737       11800       16.1069
1.02599       11900       16.0529
1.03461       12000       15.9995
1.04323       12100       15.9466
1.05185       12200       15.8943
1.06047       12300       15.8424
1.0691       12400       15.791
1.07772       12500       15.7401
1.08634       12600       15.6897
1.09496       12700       15.6397
1.10358       12800       15.5902
1.1122       12900       15.5412
1.12083       13000       15.4926
1.12945       13100       15.4444
1.13807       13200       15.3967
1.14669       13300       15.3494
1.15531       13400       15.3025
1.16393       13500       15.256
1.17256       13600       15.21
1.18118       13700       15.1643
1.1898       13800       15.119
1.19842       13900       15.0741
1.20704       14000       15.0296
1.21567       14100       14.9855
1.22429       14200       14.9417
1.23291       14300       14.8983
1.24153       14400       14.8552
1.25015       14500       14.8125
1.25877       14600       14.7702
1.2674       14700       14.7282
1.27602       14800       14.6865
1.28464       14900       14.6452
1.29326       15000       14.6042
1.30188       15100       14.5635
1.3105       15200       14.5232
1.31913       15300       14.4831
1.32775       15400       14.4434
1.33637       15500       14.404
1.34499       15600       14.3649
1.35361       15700       14.326
1.36223       15800       14.2875
1.37086       15900       14.2493
1.37948       16000       14.2113
1.3881       16100       14.1736
1.39672       16200       14.1362
1.40534       16300       14.0991
1.41397       16400       14.0623
1.42259       16500       14.0257
1.43121       16600       13.9894
1.43983       16700       13.9533
1.44845       16800       13.9175
1.45707       16900       13.882
1.4657       17000       13.8467
1.47432       17100       13.8117
1.48294       17200       13.7769
1.49156       17300       13.7423
1.50018       17400       13.708
1.5088       17500       13.6739
1.51743       17600       13.6401
1.52605       17700       13.6065
1.53467       17800       13.5731
1.54329       17900       13.54
1.55191       18000       13.507
1.56053       18100       13.4743
1.56916       18200       13.4418
1.57778       18300       13.4095
1.5864       18400       13.3775
1.59502       18500       13.3456
1.60364       18600       13.3139
1.61227       18700       13.2825
1.62089       18800       13.2513
1.62951       18900       13.2202
1.63813       19000       13.1894
1.64675       19100       13.1587
1.65537       19200       13.1283
1.664       19300       13.098
1.67262       19400       13.0679
1.68124       19500       13.038
1.68986       19600       13.0083
1.69848       19700       12.9788
1.7071       19800       12.9495
1.71573       19900       12.9203
1.72435       20000       12.8913
1.73297       20100       12.8625
1.74159       20200       12.8339
1.75021       20300       12.8055
1.75883       20400       12.7772
1.76746       20500       12.7491
1.77608       20600       12.7211
1.7847       20700       12.6933
1.79332       20800       12.6657
1.80194       20900       12.6382
1.81056       21000       12.6109
1.81919       21100       12.5838
1.82781       21200       12.5568
1.83643       21300       12.53
1.84505       21400       12.5033
1.85367       21500       12.4768
1.8623       21600       12.4504
1.87092       21700       12.4242
1.87954       21800       12.3981
1.88816       21900       12.3722
1.89678       22000       12.3464
1.9054       22100       12.3207
1.91403       22200       12.2952
1.92265       22300       12.2699
1.93127       22400       12.2446
1.93989       22500       12.2196
1.94851       22600       12.1946
1.95713       22700       12.1698
1.96576       22800       12.1451
1.97438       22900       12.1206
1.983       23000       12.0962
1.99162       23100       12.0719
2.00024       23200       12.0477
2.00886       23300       12.0237
2.01749       23400       11.9998
2.02611       23500       11.976
2.03473       23600       11.9524
2.04335       23700       11.9288
2.05197       23800       11.9054
2.0606       23900       11.8822
2.06922       24000       11.859
2.07784       24100       11.8359
2.08646       24200       11.813
2.09508       24300       11.7902
2.1037       24400       11.7675
2.11233       24500       11.7449
2.12095       24600       11.7225
2.12957       24700       11.7001
2.13819       24800       11.6779
2.14681       24900       11.6557
2.15543       25000       11.6337
2.16406       25100       11.6118
2.17268       25200       11.59
2.1813       25300       11.5683
2.18992       25400       11.5467
2.19854       25500       11.5252
2.20716       25600       11.5039
2.21579       25700       11.4826
2.22441       25800       11.4614
2.23303       25900       11.4403
2.24165       26000       11.4194
2.25027       26100       11.3985
2.2589       26200       11.3777
2.26752       26300       11.3571
2.27614       26400       11.3365
2.28476       26500       11.316
2.29338       26600       11.2956
2.302       26700       11.2753
2.31063       26800       11.2551
2.31925       26900       11.235
2.32787       27000       11.215
2.33649       27100       11.1951
2.34511       27200       11.1753
2.35373       27300       11.1556
2.36236       27400       11.1359
2.37098       27500       11.1164
2.3796       27600       11.0969
2.38822       27700       11.0775
2.39684       27800       11.0582
2.40546       27900       11.039
2.41409       28000       11.0199
2.42271       28100       11.0009
2.43133       28200       10.982
2.43995       28300       10.9631
2.44857       28400       10.9443
2.4572       28500       10.9256
2.46582       28600       10.907
2.47444       28700       10.8885
2.48306       28800       10.87
2.49168       28900       10.8517
2.5003       29000       10.8334
2.50893       29100       10.8152
2.51755       29200       10.797
2.52617       29300       10.779
2.53479       29400       10.761
2.54341       29500       10.7431
2.55203       29600       10.7253
2.56066       29700       10.7075
2.56928       29800       10.6898
2.5779       29900       10.6722
2.58652       30000       10.6547
2.59514       30100       10.6373
2.60376       30200       10.6199
2.61239       30300       10.6026
2.62101       30400       10.5853
2.62963       30500       10.5682
2.63825       30600       10.5511
2.64687       30700       10.5341
2.6555       30800       10.5171
2.66412       30900       10.5002
2.67274       31000       10.4834
2.68136       31100       10.4667
2.68998       31200       10.45
2.6986       31300       10.4334
2.70723       31400       10.4168
2.71585       31500       10.4004
2.72447       31600       10.384
2.73309       31700       10.3676
2.74171       31800       10.3513
2.75033       31900       10.3351
2.75896       32000       10.319
2.76758       32100       10.3029
2.7762       32200       10.2869
2.78482       32300       10.2709
2.79344       32400       10.255
2.80206       32500       10.2392
2.81069       32600       10.2234
2.81931       32700       10.2077
2.82793       32800       10.192
2.83655       32900       10.1764
2.84517       33000       10.1609
2.8538       33100       10.1454
2.86242       33200       10.13
2.87104       33300       10.1147
2.87966       33400       10.0994
2.88828       33500       10.0842
2.8969       33600       10.069
2.90553       33700       10.0539
2.91415       33800       10.0388
2.92277       33900       10.0238
2.93139       34000       10.0088
2.94001       34100       9.99395
2.94863       34200       9.97911
2.95726       34300       9.96433
2.96588       34400       9.9496
2.9745       34500       9.93493
2.98312       34600       9.92031
2.99174       34700       9.90575
3.00036       34800       9.89124
3.00899       34900       9.87678
3.01761       35000       9.86237
3.02623       35100       9.84802
3.03485       35200       9.83372
3.04347       35300       9.81947
3.0521       35400       9.80528
3.06072       35500       9.79113
3.06934       35600       9.77704
3.07796       35700       9.76299
3.08658       35800       9.749
3.0952       35900       9.73506
3.10383       36000       9.72116
3.11245       36100       9.70732
3.12107       36200       9.69353
3.12969       36300       9.67978
3.13831       36400       9.66608
3.14693       36500       9.65243
3.15556       36600       9.63883
3.16418       36700       9.62528
3.1728       36800       9.61177
3.18142       36900       9.59831
3.19004       37000       9.5849
3.19866       37100       9.57153
3.20729       37200       9.55822
3.21591       37300       9.54494
3.22453       37400       9.53171
3.23315       37500       9.51853
3.24177       37600       9.5054
3.2504       37700       9.4923
3.25902       37800       9.47926
3.26764       37900       9.46625
3.27626       38000       9.4533
3.28488       38100       9.44038
3.2935       38200       9.42751
3.30213       38300       9.41468
3.31075       38400       9.4019
3.31937       38500       9.38916
3.32799       38600       9.37646
3.33661       38700       9.3638
3.34523       38800       9.35119
3.35386       38900       9.33862
3.36248       39000       9.32609
3.3711       39100       9.3136
3.37972       39200       9.30115
3.38834       39300       9.28875
3.39696       39400       9.27638
3.40559       39500       9.26406
3.41421       39600       9.25177
3.42283       39700       9.23953
3.43145       39800       9.22732
3.44007       39900       9.21516
3.4487       40000       9.20303
3.45732       40100       9.19095
3.46594       40200       9.1789
3.47456       40300       9.16689
3.48318       40400       9.15492
3.4918       40500       9.14299
3.50043       40600       9.1311
3.50905       40700       9.11924
3.51767       40800       9.10743
3.52629       40900       9.09565
3.53491       41000       9.08391
3.54353       41100       9.0722
3.55216       41200       9.06053
3.56078       41300       9.0489
3.5694       41400       9.03731
3.57802       41500       9.02575
3.58664       41600       9.01423
3.59526       41700       9.00274
3.60389       41800       8.99129
3.61251       41900       8.97988
3.62113       42000       8.9685
3.62975       42100       8.95716
3.63837       42200       8.94585
3.647       42300       8.93458
3.65562       42400       8.92334
3.66424       42500       8.91213
3.67286       42600       8.90096
3.68148       42700       8.88983
3.6901       42800       8.87873
3.69873       42900       8.86766
3.70735       43000       8.85663
3.71597       43100       8.84563
3.72459       43200       8.83466
3.73321       43300       8.82373
3.74183       43400       8.81282
3.75046       43500       8.80196
3.75908       43600       8.79112
3.7677       43700       8.78032
3.77632       43800       8.76955
3.78494       43900       8.75881
3.79356       44000       8.7481
3.80219       44100       8.73743
3.81081       44200       8.72679
3.81943       44300       8.71618
3.82805       44400       8.7056
3.83667       44500       8.69505
3.8453       44600       8.68453
3.85392       44700       8.67404
3.86254       44800       8.66359
3.87116       44900       8.65316
3.87978       45000       8.64277
3.8884       45100       8.6324
3.89703       45200       8.62207
3.90565       45300       8.61177
3.91427       45400       8.60149
3.92289       45500       8.59125
3.93151       45600       8.58103
3.94013       45700       8.57085
3.94876       45800       8.56069
3.95738       45900       8.55056
3.966       46000       8.54047
3.97462       46100       8.5304
3.98324       46200       8.52036
3.99186       46300       8.51034
4.00049       46400       8.50036
4.00911       46500       8.49041
4.01773       46600       8.48048
4.02635       46700       8.47058
4.03497       46800       8.46071
4.0436       46900       8.45087
4.05222       47000       8.44105
4.06084       47100       8.43127
4.06946       47200       8.42151
4.07808       47300       8.41177
4.0867       47400       8.40207
4.09533       47500       8.39239
4.10395       47600       8.38274
4.11257       47700       8.37311
4.12119       47800       8.36351
4.12981       47900       8.35394
4.13843       48000       8.3444
4.14706       48100       8.33488
4.15568       48200       8.32538
4.1643       48300       8.31592
4.17292       48400       8.30648
4.18154       48500       8.29706
4.19016       48600       8.28767
4.19879       48700       8.27831
4.20741       48800       8.26897
4.21603       48900       8.25966
4.22465       49000       8.25037
4.23327       49100       8.24111
4.2419       49200       8.23187
4.25052       49300       8.22266
4.25914       49400       8.21347
4.26776       49500       8.20431
4.27638       49600       8.19517
4.285       49700       8.18605
4.29363       49800       8.17696
4.30225       49900       8.1679
4.31087       50000       8.15886
4.31949       50100       8.14984
4.32811       50200       8.14085
4.33673       50300       8.13188
4.34536       50400       8.12293
4.35398       50500       8.11401
4.3626       50600       8.10511
4.37122       50700       8.09624
4.37984       50800       8.08738
4.38846       50900       8.07855
4.39709       51000       8.06975
4.40571       51100       8.06097
4.41433       51200       8.05221
4.42295       51300       8.04347
4.43157       51400       8.03476
4.4402       51500       8.02606
4.44882       51600       8.01739
4.45744       51700       8.00875
4.46606       51800       8.00012
4.47468       51900       7.99152
4.4833       52000       7.98294
4.49193       52100       7.97438
4.50055       52200       7.96585
4.50917       52300       7.95733
4.51779       52400       7.94884
4.52641       52500       7.94037
4.53503       52600       7.93192
4.54366       52700       7.92349
4.55228       52800       7.91509
4.5609       52900       7.9067
4.56952       53000       7.89834
4.57814       53100       7.88999
4.58676       53200       7.88167
4.59539       53300       7.87337
4.60401       53400       7.86509
4.61263       53500       7.85683
4.62125       53600       7.84859
4.62987       53700       7.84038
4.6385       53800       7.83218
4.64712       53900       7.824
4.65574       54000       7.81585
4.66436       54100       7.80771
4.67298       54200       7.79959
4.6816       54300       7.7915
4.69023       54400       7.78342
4.69885       54500       7.77537
4.70747       54600       7.76733
4.71609       54700       7.75931
4.72471       54800       7.75132
4.73333       54900       7.74334
4.74196       55000       7.73538
4.75058       55100       7.72744
4.7592       55200       7.71952
4.76782       55300       7.71162
4.77644       55400       7.70374
4.78506       55500       7.69588
4.79369       55600       7.68804
4.80231       55700       7.68022
4.81093       55800       7.67241
4.81955       55900       7.66463
4.82817       56000       7.65686
4.8368       56100       7.64911
4.84542       56200       7.64139
4.85404       56300       7.63367
4.86266       56400       7.62598
4.87128       56500       7.61831
4.8799       56600       7.61065
4.88853       56700       7.60302
4.89715       56800       7.5954
4.90577       56900       7.5878
4.91439       57000       7.58021
4.92301       57100       7.57265
4.93163       57200       7.5651
4.94026       57300       7.55757
4.94888       57400       7.55006
4.9575       57500       7.54257
4.96612       57600       7.53509
4.97474       57700       7.52763
4.98336       57800       7.52019
4.99199       57900       7.51277
